# E (eV)  dos(E)    pdos(E)
  -6.281  0.474E-05  0.472E-05
  -6.271  0.732E-05  0.730E-05
  -6.261  0.112E-04  0.112E-04
  -6.251  0.169E-04  0.169E-04
  -6.241  0.254E-04  0.253E-04
  -6.231  0.375E-04  0.374E-04
  -6.221  0.550E-04  0.548E-04
  -6.211  0.797E-04  0.794E-04
  -6.201  0.114E-03  0.114E-03
  -6.191  0.162E-03  0.161E-03
  -6.181  0.227E-03  0.226E-03
  -6.171  0.315E-03  0.314E-03
  -6.161  0.433E-03  0.431E-03
  -6.151  0.587E-03  0.585E-03
  -6.141  0.789E-03  0.786E-03
  -6.131  0.105E-02  0.105E-02
  -6.121  0.138E-02  0.137E-02
  -6.111  0.179E-02  0.179E-02
  -6.101  0.231E-02  0.230E-02
  -6.091  0.293E-02  0.293E-02
  -6.081  0.369E-02  0.368E-02
  -6.071  0.460E-02  0.459E-02
  -6.061  0.567E-02  0.565E-02
  -6.051  0.691E-02  0.689E-02
  -6.041  0.833E-02  0.831E-02
  -6.031  0.994E-02  0.991E-02
  -6.021  0.117E-01  0.117E-01
  -6.011  0.137E-01  0.136E-01
  -6.001  0.158E-01  0.158E-01
  -5.991  0.181E-01  0.180E-01
  -5.981  0.204E-01  0.203E-01
  -5.971  0.228E-01  0.227E-01
  -5.961  0.252E-01  0.252E-01
  -5.951  0.276E-01  0.275E-01
  -5.941  0.299E-01  0.298E-01
  -5.931  0.320E-01  0.319E-01
  -5.921  0.339E-01  0.338E-01
  -5.911  0.356E-01  0.354E-01
  -5.901  0.369E-01  0.368E-01
  -5.891  0.379E-01  0.378E-01
  -5.881  0.385E-01  0.384E-01
  -5.871  0.387E-01  0.386E-01
  -5.861  0.386E-01  0.385E-01
  -5.851  0.382E-01  0.380E-01
  -5.841  0.374E-01  0.373E-01
  -5.831  0.364E-01  0.363E-01
  -5.821  0.353E-01  0.352E-01
  -5.811  0.341E-01  0.340E-01
  -5.801  0.330E-01  0.329E-01
  -5.791  0.321E-01  0.319E-01
  -5.781  0.315E-01  0.314E-01
  -5.771  0.314E-01  0.313E-01
  -5.761  0.319E-01  0.318E-01
  -5.751  0.333E-01  0.332E-01
  -5.741  0.356E-01  0.355E-01
  -5.731  0.391E-01  0.390E-01
  -5.721  0.440E-01  0.438E-01
  -5.711  0.503E-01  0.501E-01
  -5.701  0.582E-01  0.580E-01
  -5.691  0.679E-01  0.677E-01
  -5.681  0.794E-01  0.792E-01
  -5.671  0.928E-01  0.925E-01
  -5.661  0.108E+00  0.108E+00
  -5.651  0.125E+00  0.125E+00
  -5.641  0.144E+00  0.144E+00
  -5.631  0.165E+00  0.164E+00
  -5.621  0.187E+00  0.186E+00
  -5.611  0.210E+00  0.209E+00
  -5.601  0.233E+00  0.232E+00
  -5.591  0.258E+00  0.257E+00
  -5.581  0.282E+00  0.281E+00
  -5.571  0.306E+00  0.305E+00
  -5.561  0.329E+00  0.328E+00
  -5.551  0.351E+00  0.349E+00
  -5.541  0.371E+00  0.370E+00
  -5.531  0.389E+00  0.388E+00
  -5.521  0.405E+00  0.404E+00
  -5.511  0.419E+00  0.417E+00
  -5.501  0.429E+00  0.428E+00
  -5.491  0.437E+00  0.436E+00
  -5.481  0.442E+00  0.440E+00
  -5.471  0.444E+00  0.442E+00
  -5.461  0.443E+00  0.441E+00
  -5.451  0.438E+00  0.437E+00
  -5.441  0.431E+00  0.430E+00
  -5.431  0.422E+00  0.420E+00
  -5.421  0.410E+00  0.408E+00
  -5.411  0.395E+00  0.394E+00
  -5.401  0.379E+00  0.378E+00
  -5.391  0.361E+00  0.360E+00
  -5.381  0.342E+00  0.340E+00
  -5.371  0.321E+00  0.320E+00
  -5.361  0.299E+00  0.298E+00
  -5.351  0.277E+00  0.276E+00
  -5.341  0.254E+00  0.253E+00
  -5.331  0.232E+00  0.231E+00
  -5.321  0.210E+00  0.209E+00
  -5.311  0.188E+00  0.188E+00
  -5.301  0.168E+00  0.167E+00
  -5.291  0.148E+00  0.147E+00
  -5.281  0.130E+00  0.129E+00
  -5.271  0.113E+00  0.112E+00
  -5.261  0.973E-01  0.970E-01
  -5.251  0.836E-01  0.833E-01
  -5.241  0.717E-01  0.714E-01
  -5.231  0.615E-01  0.612E-01
  -5.221  0.531E-01  0.529E-01
  -5.211  0.465E-01  0.463E-01
  -5.201  0.418E-01  0.417E-01
  -5.191  0.390E-01  0.389E-01
  -5.181  0.382E-01  0.380E-01
  -5.171  0.393E-01  0.391E-01
  -5.161  0.424E-01  0.423E-01
  -5.151  0.477E-01  0.475E-01
  -5.141  0.552E-01  0.550E-01
  -5.131  0.651E-01  0.648E-01
  -5.121  0.773E-01  0.770E-01
  -5.111  0.919E-01  0.915E-01
  -5.101  0.109E+00  0.109E+00
  -5.091  0.128E+00  0.128E+00
  -5.081  0.150E+00  0.150E+00
  -5.071  0.174E+00  0.173E+00
  -5.061  0.200E+00  0.199E+00
  -5.051  0.227E+00  0.226E+00
  -5.041  0.256E+00  0.255E+00
  -5.031  0.285E+00  0.283E+00
  -5.021  0.313E+00  0.312E+00
  -5.011  0.342E+00  0.340E+00
  -5.001  0.368E+00  0.367E+00
  -4.991  0.393E+00  0.391E+00
  -4.981  0.414E+00  0.413E+00
  -4.971  0.432E+00  0.431E+00
  -4.961  0.447E+00  0.445E+00
  -4.951  0.456E+00  0.455E+00
  -4.941  0.462E+00  0.460E+00
  -4.931  0.462E+00  0.460E+00
  -4.921  0.457E+00  0.456E+00
  -4.911  0.449E+00  0.447E+00
  -4.901  0.436E+00  0.434E+00
  -4.891  0.419E+00  0.418E+00
  -4.881  0.400E+00  0.399E+00
  -4.871  0.379E+00  0.378E+00
  -4.861  0.357E+00  0.356E+00
  -4.851  0.335E+00  0.334E+00
  -4.841  0.314E+00  0.313E+00
  -4.831  0.295E+00  0.294E+00
  -4.821  0.279E+00  0.278E+00
  -4.811  0.268E+00  0.266E+00
  -4.801  0.260E+00  0.259E+00
  -4.791  0.259E+00  0.258E+00
  -4.781  0.264E+00  0.262E+00
  -4.771  0.275E+00  0.274E+00
  -4.761  0.294E+00  0.292E+00
  -4.751  0.320E+00  0.318E+00
  -4.741  0.353E+00  0.351E+00
  -4.731  0.393E+00  0.392E+00
  -4.721  0.440E+00  0.438E+00
  -4.711  0.493E+00  0.491E+00
  -4.701  0.552E+00  0.549E+00
  -4.691  0.614E+00  0.612E+00
  -4.681  0.680E+00  0.677E+00
  -4.671  0.747E+00  0.744E+00
  -4.661  0.814E+00  0.810E+00
  -4.651  0.879E+00  0.875E+00
  -4.641  0.941E+00  0.937E+00
  -4.631  0.998E+00  0.994E+00
  -4.621  0.105E+01  0.104E+01
  -4.611  0.109E+01  0.109E+01
  -4.601  0.112E+01  0.112E+01
  -4.591  0.115E+01  0.114E+01
  -4.581  0.116E+01  0.115E+01
  -4.571  0.116E+01  0.116E+01
  -4.561  0.115E+01  0.115E+01
  -4.551  0.113E+01  0.113E+01
  -4.541  0.110E+01  0.110E+01
  -4.531  0.106E+01  0.106E+01
  -4.521  0.101E+01  0.101E+01
  -4.511  0.957E+00  0.953E+00
  -4.501  0.897E+00  0.893E+00
  -4.491  0.833E+00  0.829E+00
  -4.481  0.766E+00  0.763E+00
  -4.471  0.698E+00  0.695E+00
  -4.461  0.630E+00  0.628E+00
  -4.451  0.564E+00  0.562E+00
  -4.441  0.500E+00  0.498E+00
  -4.431  0.440E+00  0.438E+00
  -4.421  0.383E+00  0.381E+00
  -4.411  0.330E+00  0.329E+00
  -4.401  0.282E+00  0.281E+00
  -4.391  0.239E+00  0.238E+00
  -4.381  0.201E+00  0.200E+00
  -4.371  0.167E+00  0.167E+00
  -4.361  0.138E+00  0.137E+00
  -4.351  0.113E+00  0.112E+00
  -4.341  0.914E-01  0.910E-01
  -4.331  0.735E-01  0.732E-01
  -4.321  0.587E-01  0.585E-01
  -4.311  0.467E-01  0.465E-01
  -4.301  0.370E-01  0.369E-01
  -4.291  0.295E-01  0.294E-01
  -4.281  0.238E-01  0.237E-01
  -4.271  0.197E-01  0.196E-01
  -4.261  0.170E-01  0.169E-01
  -4.251  0.156E-01  0.155E-01
  -4.241  0.153E-01  0.152E-01
  -4.231  0.162E-01  0.161E-01
  -4.221  0.181E-01  0.180E-01
  -4.211  0.211E-01  0.209E-01
  -4.201  0.251E-01  0.250E-01
  -4.191  0.303E-01  0.302E-01
  -4.181  0.367E-01  0.365E-01
  -4.171  0.442E-01  0.440E-01
  -4.161  0.530E-01  0.528E-01
  -4.151  0.631E-01  0.628E-01
  -4.141  0.744E-01  0.741E-01
  -4.131  0.870E-01  0.866E-01
  -4.121  0.101E+00  0.100E+00
  -4.111  0.116E+00  0.115E+00
  -4.101  0.132E+00  0.131E+00
  -4.091  0.148E+00  0.148E+00
  -4.081  0.166E+00  0.165E+00
  -4.071  0.184E+00  0.183E+00
  -4.061  0.203E+00  0.202E+00
  -4.051  0.222E+00  0.221E+00
  -4.041  0.241E+00  0.240E+00
  -4.031  0.261E+00  0.260E+00
  -4.021  0.282E+00  0.281E+00
  -4.011  0.303E+00  0.302E+00
  -4.001  0.325E+00  0.324E+00
  -3.991  0.349E+00  0.347E+00
  -3.981  0.374E+00  0.372E+00
  -3.971  0.400E+00  0.399E+00
  -3.961  0.429E+00  0.428E+00
  -3.951  0.461E+00  0.459E+00
  -3.941  0.496E+00  0.493E+00
  -3.931  0.533E+00  0.531E+00
  -3.921  0.573E+00  0.571E+00
  -3.911  0.617E+00  0.614E+00
  -3.901  0.662E+00  0.659E+00
  -3.891  0.710E+00  0.707E+00
  -3.881  0.759E+00  0.756E+00
  -3.871  0.808E+00  0.805E+00
  -3.861  0.857E+00  0.854E+00
  -3.851  0.905E+00  0.902E+00
  -3.841  0.951E+00  0.948E+00
  -3.831  0.995E+00  0.991E+00
  -3.821  0.103E+01  0.103E+01
  -3.811  0.107E+01  0.107E+01
  -3.801  0.110E+01  0.110E+01
  -3.791  0.113E+01  0.113E+01
  -3.781  0.115E+01  0.115E+01
  -3.771  0.117E+01  0.117E+01
  -3.761  0.119E+01  0.119E+01
  -3.751  0.120E+01  0.120E+01
  -3.741  0.122E+01  0.121E+01
  -3.731  0.123E+01  0.122E+01
  -3.721  0.124E+01  0.123E+01
  -3.711  0.125E+01  0.125E+01
  -3.701  0.126E+01  0.126E+01
  -3.691  0.127E+01  0.127E+01
  -3.681  0.128E+01  0.128E+01
  -3.671  0.129E+01  0.129E+01
  -3.661  0.130E+01  0.130E+01
  -3.651  0.131E+01  0.131E+01
  -3.641  0.132E+01  0.132E+01
  -3.631  0.133E+01  0.132E+01
  -3.621  0.133E+01  0.132E+01
  -3.611  0.133E+01  0.132E+01
  -3.601  0.132E+01  0.132E+01
  -3.591  0.132E+01  0.131E+01
  -3.581  0.131E+01  0.130E+01
  -3.571  0.130E+01  0.129E+01
  -3.561  0.128E+01  0.128E+01
  -3.551  0.127E+01  0.126E+01
  -3.541  0.126E+01  0.125E+01
  -3.531  0.124E+01  0.124E+01
  -3.521  0.123E+01  0.122E+01
  -3.511  0.122E+01  0.121E+01
  -3.501  0.121E+01  0.120E+01
  -3.491  0.120E+01  0.119E+01
  -3.481  0.119E+01  0.118E+01
  -3.471  0.117E+01  0.117E+01
  -3.461  0.116E+01  0.116E+01
  -3.451  0.115E+01  0.114E+01
  -3.441  0.113E+01  0.113E+01
  -3.431  0.111E+01  0.111E+01
  -3.421  0.109E+01  0.108E+01
  -3.411  0.105E+01  0.105E+01
  -3.401  0.102E+01  0.101E+01
  -3.391  0.977E+00  0.974E+00
  -3.381  0.930E+00  0.927E+00
  -3.371  0.879E+00  0.876E+00
  -3.361  0.823E+00  0.820E+00
  -3.351  0.764E+00  0.761E+00
  -3.341  0.703E+00  0.700E+00
  -3.331  0.640E+00  0.638E+00
  -3.321  0.578E+00  0.576E+00
  -3.311  0.516E+00  0.514E+00
  -3.301  0.457E+00  0.455E+00
  -3.291  0.400E+00  0.399E+00
  -3.281  0.347E+00  0.345E+00
  -3.271  0.297E+00  0.296E+00
  -3.261  0.252E+00  0.252E+00
  -3.251  0.212E+00  0.211E+00
  -3.241  0.176E+00  0.176E+00
  -3.231  0.145E+00  0.145E+00
  -3.221  0.118E+00  0.118E+00
  -3.211  0.956E-01  0.952E-01
  -3.201  0.766E-01  0.763E-01
  -3.191  0.611E-01  0.608E-01
  -3.181  0.486E-01  0.485E-01
  -3.171  0.390E-01  0.388E-01
  -3.161  0.318E-01  0.317E-01
  -3.151  0.269E-01  0.268E-01
  -3.141  0.241E-01  0.240E-01
  -3.131  0.232E-01  0.231E-01
  -3.121  0.244E-01  0.242E-01
  -3.111  0.275E-01  0.273E-01
  -3.101  0.327E-01  0.325E-01
  -3.091  0.402E-01  0.400E-01
  -3.081  0.502E-01  0.500E-01
  -3.071  0.631E-01  0.628E-01
  -3.061  0.791E-01  0.787E-01
  -3.051  0.985E-01  0.980E-01
  -3.041  0.122E+00  0.121E+00
  -3.031  0.149E+00  0.148E+00
  -3.021  0.181E+00  0.180E+00
  -3.011  0.217E+00  0.216E+00
  -3.001  0.258E+00  0.257E+00
  -2.991  0.304E+00  0.302E+00
  -2.981  0.354E+00  0.352E+00
  -2.971  0.407E+00  0.405E+00
  -2.961  0.464E+00  0.462E+00
  -2.951  0.524E+00  0.522E+00
  -2.941  0.586E+00  0.583E+00
  -2.931  0.648E+00  0.645E+00
  -2.921  0.711E+00  0.707E+00
  -2.911  0.772E+00  0.768E+00
  -2.901  0.831E+00  0.827E+00
  -2.891  0.887E+00  0.882E+00
  -2.881  0.939E+00  0.934E+00
  -2.871  0.986E+00  0.981E+00
  -2.861  0.103E+01  0.102E+01
  -2.851  0.107E+01  0.106E+01
  -2.841  0.110E+01  0.110E+01
  -2.831  0.113E+01  0.113E+01
  -2.821  0.116E+01  0.115E+01
  -2.811  0.118E+01  0.118E+01
  -2.801  0.121E+01  0.120E+01
  -2.791  0.123E+01  0.122E+01
  -2.781  0.125E+01  0.125E+01
  -2.771  0.128E+01  0.127E+01
  -2.761  0.130E+01  0.130E+01
  -2.751  0.133E+01  0.133E+01
  -2.741  0.136E+01  0.135E+01
  -2.731  0.139E+01  0.138E+01
  -2.721  0.142E+01  0.141E+01
  -2.711  0.145E+01  0.144E+01
  -2.701  0.147E+01  0.147E+01
  -2.691  0.149E+01  0.149E+01
  -2.681  0.151E+01  0.150E+01
  -2.671  0.151E+01  0.151E+01
  -2.661  0.151E+01  0.150E+01
  -2.651  0.149E+01  0.149E+01
  -2.641  0.147E+01  0.146E+01
  -2.631  0.144E+01  0.143E+01
  -2.621  0.139E+01  0.138E+01
  -2.611  0.133E+01  0.133E+01
  -2.601  0.127E+01  0.126E+01
  -2.591  0.119E+01  0.119E+01
  -2.581  0.111E+01  0.111E+01
  -2.571  0.102E+01  0.102E+01
  -2.561  0.936E+00  0.933E+00
  -2.551  0.847E+00  0.844E+00
  -2.541  0.758E+00  0.755E+00
  -2.531  0.671E+00  0.669E+00
  -2.521  0.588E+00  0.586E+00
  -2.511  0.510E+00  0.508E+00
  -2.501  0.438E+00  0.436E+00
  -2.491  0.372E+00  0.370E+00
  -2.481  0.312E+00  0.311E+00
  -2.471  0.260E+00  0.259E+00
  -2.461  0.214E+00  0.213E+00
  -2.451  0.174E+00  0.173E+00
  -2.441  0.140E+00  0.139E+00
  -2.431  0.111E+00  0.111E+00
  -2.421  0.877E-01  0.874E-01
  -2.411  0.683E-01  0.681E-01
  -2.401  0.527E-01  0.525E-01
  -2.391  0.402E-01  0.400E-01
  -2.381  0.303E-01  0.302E-01
  -2.371  0.226E-01  0.226E-01
  -2.361  0.167E-01  0.167E-01
  -2.351  0.122E-01  0.122E-01
  -2.341  0.883E-02  0.879E-02
  -2.331  0.631E-02  0.629E-02
  -2.321  0.446E-02  0.445E-02
  -2.311  0.312E-02  0.311E-02
  -2.301  0.216E-02  0.215E-02
  -2.291  0.148E-02  0.148E-02
  -2.281  0.100E-02  0.100E-02
  -2.271  0.673E-03  0.671E-03
  -2.261  0.447E-03  0.445E-03
  -2.251  0.294E-03  0.293E-03
  -2.241  0.193E-03  0.192E-03
  -2.231  0.127E-03  0.127E-03
  -2.221  0.858E-04  0.854E-04
  -2.211  0.620E-04  0.617E-04
  -2.201  0.513E-04  0.511E-04
  -2.191  0.515E-04  0.512E-04
  -2.181  0.621E-04  0.617E-04
  -2.171  0.844E-04  0.838E-04
  -2.161  0.121E-03  0.120E-03
  -2.151  0.177E-03  0.176E-03
  -2.141  0.260E-03  0.259E-03
  -2.131  0.380E-03  0.377E-03
  -2.121  0.550E-03  0.546E-03
  -2.111  0.787E-03  0.782E-03
  -2.101  0.112E-02  0.111E-02
  -2.091  0.157E-02  0.156E-02
  -2.081  0.218E-02  0.217E-02
  -2.071  0.300E-02  0.298E-02
  -2.061  0.408E-02  0.406E-02
  -2.051  0.551E-02  0.547E-02
  -2.041  0.735E-02  0.731E-02
  -2.031  0.972E-02  0.966E-02
  -2.021  0.127E-01  0.126E-01
  -2.011  0.165E-01  0.164E-01
  -2.001  0.212E-01  0.211E-01
  -1.991  0.270E-01  0.268E-01
  -1.981  0.341E-01  0.339E-01
  -1.971  0.426E-01  0.424E-01
  -1.961  0.528E-01  0.525E-01
  -1.951  0.650E-01  0.645E-01
  -1.941  0.792E-01  0.787E-01
  -1.931  0.957E-01  0.951E-01
  -1.921  0.115E+00  0.114E+00
  -1.911  0.137E+00  0.136E+00
  -1.901  0.161E+00  0.160E+00
  -1.891  0.189E+00  0.188E+00
  -1.881  0.220E+00  0.219E+00
  -1.871  0.255E+00  0.253E+00
  -1.861  0.292E+00  0.291E+00
  -1.851  0.333E+00  0.332E+00
  -1.841  0.378E+00  0.375E+00
  -1.831  0.425E+00  0.422E+00
  -1.821  0.475E+00  0.472E+00
  -1.811  0.527E+00  0.524E+00
  -1.801  0.581E+00  0.577E+00
  -1.791  0.636E+00  0.632E+00
  -1.781  0.691E+00  0.687E+00
  -1.771  0.746E+00  0.742E+00
  -1.761  0.799E+00  0.794E+00
  -1.751  0.849E+00  0.845E+00
  -1.741  0.896E+00  0.891E+00
  -1.731  0.938E+00  0.933E+00
  -1.721  0.974E+00  0.969E+00
  -1.711  0.100E+01  0.998E+00
  -1.701  0.102E+01  0.102E+01
  -1.691  0.104E+01  0.103E+01
  -1.681  0.104E+01  0.103E+01
  -1.671  0.103E+01  0.103E+01
  -1.661  0.102E+01  0.101E+01
  -1.651  0.994E+00  0.988E+00
  -1.641  0.961E+00  0.955E+00
  -1.631  0.920E+00  0.915E+00
  -1.621  0.872E+00  0.867E+00
  -1.611  0.818E+00  0.814E+00
  -1.601  0.761E+00  0.757E+00
  -1.591  0.700E+00  0.696E+00
  -1.581  0.637E+00  0.634E+00
  -1.571  0.575E+00  0.572E+00
  -1.561  0.513E+00  0.510E+00
  -1.551  0.453E+00  0.451E+00
  -1.541  0.396E+00  0.394E+00
  -1.531  0.342E+00  0.341E+00
  -1.521  0.293E+00  0.292E+00
  -1.511  0.248E+00  0.247E+00
  -1.501  0.208E+00  0.207E+00
  -1.491  0.173E+00  0.172E+00
  -1.481  0.142E+00  0.141E+00
  -1.471  0.115E+00  0.114E+00
  -1.461  0.923E-01  0.918E-01
  -1.451  0.734E-01  0.730E-01
  -1.441  0.577E-01  0.574E-01
  -1.431  0.449E-01  0.446E-01
  -1.421  0.345E-01  0.343E-01
  -1.411  0.263E-01  0.262E-01
  -1.401  0.198E-01  0.197E-01
  -1.391  0.148E-01  0.147E-01
  -1.381  0.109E-01  0.108E-01
  -1.371  0.794E-02  0.790E-02
  -1.361  0.574E-02  0.571E-02
  -1.351  0.411E-02  0.409E-02
  -1.341  0.292E-02  0.291E-02
  -1.331  0.207E-02  0.206E-02
  -1.321  0.147E-02  0.147E-02
  -1.311  0.107E-02  0.107E-02
  -1.301  0.824E-03  0.818E-03
  -1.291  0.693E-03  0.688E-03
  -1.281  0.665E-03  0.659E-03
  -1.271  0.731E-03  0.724E-03
  -1.261  0.893E-03  0.884E-03
  -1.251  0.116E-02  0.115E-02
  -1.241  0.156E-02  0.154E-02
  -1.231  0.211E-02  0.208E-02
  -1.221  0.285E-02  0.282E-02
  -1.211  0.384E-02  0.379E-02
  -1.201  0.513E-02  0.507E-02
  -1.191  0.679E-02  0.671E-02
  -1.181  0.892E-02  0.881E-02
  -1.171  0.116E-01  0.115E-01
  -1.161  0.150E-01  0.148E-01
  -1.151  0.191E-01  0.189E-01
  -1.141  0.243E-01  0.240E-01
  -1.131  0.305E-01  0.302E-01
  -1.121  0.381E-01  0.377E-01
  -1.111  0.472E-01  0.467E-01
  -1.101  0.580E-01  0.574E-01
  -1.091  0.708E-01  0.701E-01
  -1.081  0.858E-01  0.849E-01
  -1.071  0.103E+00  0.102E+00
  -1.061  0.124E+00  0.122E+00
  -1.051  0.147E+00  0.146E+00
  -1.041  0.174E+00  0.172E+00
  -1.031  0.204E+00  0.202E+00
  -1.021  0.238E+00  0.236E+00
  -1.011  0.277E+00  0.274E+00
  -1.001  0.319E+00  0.317E+00
  -0.991  0.367E+00  0.363E+00
  -0.981  0.418E+00  0.415E+00
  -0.971  0.474E+00  0.470E+00
  -0.961  0.535E+00  0.530E+00
  -0.951  0.599E+00  0.594E+00
  -0.941  0.666E+00  0.661E+00
  -0.931  0.737E+00  0.731E+00
  -0.921  0.810E+00  0.803E+00
  -0.911  0.883E+00  0.876E+00
  -0.901  0.957E+00  0.950E+00
  -0.891  0.103E+01  0.102E+01
  -0.881  0.110E+01  0.109E+01
  -0.871  0.117E+01  0.116E+01
  -0.861  0.123E+01  0.122E+01
  -0.851  0.129E+01  0.128E+01
  -0.841  0.133E+01  0.133E+01
  -0.831  0.138E+01  0.137E+01
  -0.821  0.141E+01  0.140E+01
  -0.811  0.144E+01  0.143E+01
  -0.801  0.146E+01  0.145E+01
  -0.791  0.148E+01  0.147E+01
  -0.781  0.149E+01  0.147E+01
  -0.771  0.149E+01  0.148E+01
  -0.761  0.149E+01  0.148E+01
  -0.751  0.149E+01  0.148E+01
  -0.741  0.150E+01  0.149E+01
  -0.731  0.150E+01  0.149E+01
  -0.721  0.151E+01  0.150E+01
  -0.711  0.153E+01  0.151E+01
  -0.701  0.155E+01  0.153E+01
  -0.691  0.157E+01  0.156E+01
  -0.681  0.160E+01  0.159E+01
  -0.671  0.164E+01  0.163E+01
  -0.661  0.168E+01  0.167E+01
  -0.651  0.173E+01  0.171E+01
  -0.641  0.177E+01  0.176E+01
  -0.631  0.182E+01  0.180E+01
  -0.621  0.186E+01  0.184E+01
  -0.611  0.189E+01  0.188E+01
  -0.601  0.191E+01  0.190E+01
  -0.591  0.193E+01  0.191E+01
  -0.581  0.193E+01  0.191E+01
  -0.571  0.192E+01  0.190E+01
  -0.561  0.189E+01  0.187E+01
  -0.551  0.184E+01  0.183E+01
  -0.541  0.179E+01  0.177E+01
  -0.531  0.171E+01  0.170E+01
  -0.521  0.163E+01  0.162E+01
  -0.511  0.154E+01  0.152E+01
  -0.501  0.143E+01  0.142E+01
  -0.491  0.132E+01  0.131E+01
  -0.481  0.121E+01  0.120E+01
  -0.471  0.110E+01  0.109E+01
  -0.461  0.982E+00  0.975E+00
  -0.451  0.872E+00  0.865E+00
  -0.441  0.765E+00  0.759E+00
  -0.431  0.665E+00  0.660E+00
  -0.421  0.572E+00  0.568E+00
  -0.411  0.487E+00  0.483E+00
  -0.401  0.411E+00  0.407E+00
  -0.391  0.343E+00  0.340E+00
  -0.381  0.283E+00  0.281E+00
  -0.371  0.231E+00  0.229E+00
  -0.361  0.187E+00  0.186E+00
  -0.351  0.150E+00  0.149E+00
  -0.341  0.120E+00  0.119E+00
  -0.331  0.947E-01  0.939E-01
  -0.321  0.748E-01  0.742E-01
  -0.311  0.594E-01  0.589E-01
  -0.301  0.479E-01  0.475E-01
  -0.291  0.398E-01  0.395E-01
  -0.281  0.349E-01  0.346E-01
  -0.271  0.328E-01  0.325E-01
  -0.261  0.334E-01  0.331E-01
  -0.251  0.367E-01  0.364E-01
  -0.241  0.427E-01  0.424E-01
  -0.231  0.516E-01  0.511E-01
  -0.221  0.635E-01  0.629E-01
  -0.211  0.787E-01  0.779E-01
  -0.201  0.974E-01  0.965E-01
  -0.191  0.120E+00  0.119E+00
  -0.181  0.147E+00  0.145E+00
  -0.171  0.178E+00  0.176E+00
  -0.161  0.213E+00  0.211E+00
  -0.151  0.253E+00  0.251E+00
  -0.141  0.298E+00  0.295E+00
  -0.131  0.346E+00  0.343E+00
  -0.121  0.398E+00  0.395E+00
  -0.111  0.453E+00  0.449E+00
  -0.101  0.510E+00  0.505E+00
  -0.091  0.568E+00  0.563E+00
  -0.081  0.626E+00  0.620E+00
  -0.071  0.682E+00  0.676E+00
  -0.061  0.735E+00  0.729E+00
  -0.051  0.784E+00  0.777E+00
  -0.041  0.828E+00  0.820E+00
  -0.031  0.864E+00  0.856E+00
  -0.021  0.892E+00  0.884E+00
  -0.011  0.911E+00  0.903E+00
  -0.001  0.921E+00  0.913E+00
   0.009  0.921E+00  0.913E+00
   0.019  0.912E+00  0.903E+00
   0.029  0.893E+00  0.885E+00
   0.039  0.865E+00  0.857E+00
   0.049  0.830E+00  0.822E+00
   0.059  0.788E+00  0.781E+00
   0.069  0.742E+00  0.735E+00
   0.079  0.692E+00  0.685E+00
   0.089  0.640E+00  0.634E+00
   0.099  0.588E+00  0.583E+00
   0.109  0.538E+00  0.533E+00
   0.119  0.491E+00  0.486E+00
   0.129  0.448E+00  0.444E+00
   0.139  0.411E+00  0.407E+00
   0.149  0.381E+00  0.377E+00
   0.159  0.358E+00  0.355E+00
   0.169  0.343E+00  0.340E+00
   0.179  0.337E+00  0.334E+00
   0.189  0.340E+00  0.337E+00
   0.199  0.351E+00  0.348E+00
   0.209  0.371E+00  0.368E+00
   0.219  0.398E+00  0.395E+00
   0.229  0.432E+00  0.429E+00
   0.239  0.473E+00  0.469E+00
   0.249  0.519E+00  0.515E+00
   0.259  0.568E+00  0.563E+00
   0.269  0.619E+00  0.614E+00
   0.279  0.671E+00  0.666E+00
   0.289  0.722E+00  0.716E+00
   0.299  0.770E+00  0.764E+00
   0.309  0.814E+00  0.808E+00
   0.319  0.852E+00  0.846E+00
   0.329  0.883E+00  0.876E+00
   0.339  0.906E+00  0.899E+00
   0.349  0.920E+00  0.913E+00
   0.359  0.924E+00  0.917E+00
   0.369  0.919E+00  0.912E+00
   0.379  0.904E+00  0.897E+00
   0.389  0.881E+00  0.874E+00
   0.399  0.849E+00  0.843E+00
   0.409  0.810E+00  0.804E+00
   0.419  0.766E+00  0.760E+00
   0.429  0.718E+00  0.712E+00
   0.439  0.666E+00  0.661E+00
   0.449  0.614E+00  0.609E+00
   0.459  0.562E+00  0.557E+00
   0.469  0.511E+00  0.507E+00
   0.479  0.464E+00  0.460E+00
   0.489  0.420E+00  0.417E+00
   0.499  0.381E+00  0.378E+00
   0.509  0.348E+00  0.345E+00
   0.519  0.320E+00  0.317E+00
   0.529  0.298E+00  0.295E+00
   0.539  0.282E+00  0.279E+00
   0.549  0.271E+00  0.268E+00
   0.559  0.265E+00  0.262E+00
   0.569  0.263E+00  0.260E+00
   0.579  0.265E+00  0.262E+00
   0.589  0.270E+00  0.267E+00
   0.599  0.276E+00  0.273E+00
   0.609  0.284E+00  0.281E+00
   0.619  0.292E+00  0.289E+00
   0.629  0.300E+00  0.296E+00
   0.639  0.306E+00  0.303E+00
   0.649  0.311E+00  0.307E+00
   0.659  0.313E+00  0.310E+00
   0.669  0.313E+00  0.310E+00
   0.679  0.311E+00  0.307E+00
   0.689  0.305E+00  0.302E+00
   0.699  0.297E+00  0.294E+00
   0.709  0.287E+00  0.284E+00
   0.719  0.275E+00  0.272E+00
   0.729  0.261E+00  0.258E+00
   0.739  0.246E+00  0.243E+00
   0.749  0.230E+00  0.227E+00
   0.759  0.214E+00  0.212E+00
   0.769  0.199E+00  0.197E+00
   0.779  0.185E+00  0.183E+00
   0.789  0.172E+00  0.170E+00
   0.799  0.162E+00  0.160E+00
   0.809  0.153E+00  0.151E+00
   0.819  0.147E+00  0.145E+00
   0.829  0.143E+00  0.141E+00
   0.839  0.142E+00  0.140E+00
   0.849  0.143E+00  0.142E+00
   0.859  0.147E+00  0.145E+00
   0.869  0.152E+00  0.151E+00
   0.879  0.159E+00  0.158E+00
   0.889  0.168E+00  0.166E+00
   0.899  0.178E+00  0.176E+00
   0.909  0.188E+00  0.186E+00
   0.919  0.198E+00  0.196E+00
   0.929  0.207E+00  0.205E+00
   0.939  0.215E+00  0.213E+00
   0.949  0.222E+00  0.220E+00
   0.959  0.228E+00  0.225E+00
   0.969  0.231E+00  0.229E+00
   0.979  0.232E+00  0.230E+00
   0.989  0.231E+00  0.229E+00
   0.999  0.227E+00  0.225E+00
   1.009  0.221E+00  0.219E+00
   1.019  0.214E+00  0.212E+00
   1.029  0.204E+00  0.202E+00
   1.039  0.192E+00  0.191E+00
   1.049  0.180E+00  0.178E+00
   1.059  0.166E+00  0.164E+00
   1.069  0.152E+00  0.150E+00
   1.079  0.137E+00  0.136E+00
   1.089  0.123E+00  0.122E+00
   1.099  0.109E+00  0.108E+00
   1.109  0.952E-01  0.943E-01
   1.119  0.825E-01  0.817E-01
   1.129  0.707E-01  0.700E-01
   1.139  0.600E-01  0.594E-01
   1.149  0.504E-01  0.499E-01
   1.159  0.419E-01  0.415E-01
   1.169  0.345E-01  0.342E-01
   1.179  0.283E-01  0.280E-01
   1.189  0.231E-01  0.228E-01
   1.199  0.189E-01  0.187E-01
   1.209  0.156E-01  0.154E-01
   1.219  0.132E-01  0.131E-01
   1.229  0.118E-01  0.117E-01
   1.239  0.113E-01  0.111E-01
   1.249  0.117E-01  0.116E-01
   1.259  0.132E-01  0.130E-01
   1.269  0.158E-01  0.156E-01
   1.279  0.199E-01  0.196E-01
   1.289  0.255E-01  0.253E-01
   1.299  0.331E-01  0.328E-01
   1.309  0.431E-01  0.426E-01
   1.319  0.557E-01  0.552E-01
   1.329  0.716E-01  0.709E-01
   1.339  0.912E-01  0.903E-01
   1.349  0.115E+00  0.114E+00
   1.359  0.144E+00  0.142E+00
   1.369  0.178E+00  0.176E+00
   1.379  0.217E+00  0.215E+00
   1.389  0.263E+00  0.260E+00
   1.399  0.315E+00  0.312E+00
   1.409  0.373E+00  0.370E+00
   1.419  0.438E+00  0.434E+00
   1.429  0.508E+00  0.503E+00
   1.439  0.584E+00  0.578E+00
   1.449  0.664E+00  0.657E+00
   1.459  0.746E+00  0.739E+00
   1.469  0.830E+00  0.822E+00
   1.479  0.915E+00  0.905E+00
   1.489  0.997E+00  0.987E+00
   1.499  0.107E+01  0.106E+01
   1.509  0.115E+01  0.114E+01
   1.519  0.121E+01  0.120E+01
   1.529  0.127E+01  0.125E+01
   1.539  0.131E+01  0.130E+01
   1.549  0.134E+01  0.133E+01
   1.559  0.136E+01  0.134E+01
   1.569  0.136E+01  0.135E+01
   1.579  0.135E+01  0.133E+01
   1.589  0.132E+01  0.131E+01
   1.599  0.128E+01  0.127E+01
   1.609  0.124E+01  0.122E+01
   1.619  0.118E+01  0.116E+01
   1.629  0.111E+01  0.110E+01
   1.639  0.103E+01  0.102E+01
   1.649  0.951E+00  0.942E+00
   1.659  0.869E+00  0.861E+00
   1.669  0.786E+00  0.779E+00
   1.679  0.704E+00  0.698E+00
   1.689  0.625E+00  0.620E+00
   1.699  0.551E+00  0.546E+00
   1.709  0.482E+00  0.477E+00
   1.719  0.419E+00  0.416E+00
   1.729  0.364E+00  0.361E+00
   1.739  0.317E+00  0.314E+00
   1.749  0.278E+00  0.276E+00
   1.759  0.248E+00  0.246E+00
   1.769  0.226E+00  0.224E+00
   1.779  0.213E+00  0.211E+00
   1.789  0.208E+00  0.206E+00
   1.799  0.211E+00  0.209E+00
   1.809  0.222E+00  0.220E+00
   1.819  0.241E+00  0.239E+00
   1.829  0.267E+00  0.265E+00
   1.839  0.300E+00  0.298E+00
   1.849  0.339E+00  0.337E+00
   1.859  0.384E+00  0.382E+00
   1.869  0.433E+00  0.431E+00
   1.879  0.486E+00  0.483E+00
   1.889  0.541E+00  0.538E+00
   1.899  0.598E+00  0.594E+00
   1.909  0.654E+00  0.650E+00
   1.919  0.709E+00  0.704E+00
   1.929  0.760E+00  0.755E+00
   1.939  0.806E+00  0.801E+00
   1.949  0.847E+00  0.842E+00
   1.959  0.881E+00  0.875E+00
   1.969  0.906E+00  0.900E+00
   1.979  0.923E+00  0.917E+00
   1.989  0.930E+00  0.924E+00
   1.999  0.929E+00  0.923E+00
   2.009  0.918E+00  0.912E+00
   2.019  0.899E+00  0.894E+00
   2.029  0.874E+00  0.868E+00
   2.039  0.842E+00  0.837E+00
   2.049  0.807E+00  0.802E+00
   2.059  0.769E+00  0.764E+00
   2.069  0.730E+00  0.726E+00
   2.079  0.694E+00  0.689E+00
   2.089  0.660E+00  0.655E+00
   2.099  0.632E+00  0.627E+00
   2.109  0.611E+00  0.606E+00
   2.119  0.599E+00  0.594E+00
   2.129  0.597E+00  0.592E+00
   2.139  0.606E+00  0.601E+00
   2.149  0.628E+00  0.623E+00
   2.159  0.664E+00  0.658E+00
   2.169  0.713E+00  0.707E+00
   2.179  0.776E+00  0.769E+00
   2.189  0.853E+00  0.845E+00
   2.199  0.944E+00  0.935E+00
   2.209  0.105E+01  0.104E+01
   2.219  0.116E+01  0.115E+01
   2.229  0.129E+01  0.128E+01
   2.239  0.142E+01  0.141E+01
   2.249  0.157E+01  0.155E+01
   2.259  0.171E+01  0.170E+01
   2.269  0.186E+01  0.185E+01
   2.279  0.201E+01  0.200E+01
   2.289  0.216E+01  0.214E+01
   2.299  0.230E+01  0.228E+01
   2.309  0.243E+01  0.241E+01
   2.319  0.255E+01  0.253E+01
   2.329  0.265E+01  0.263E+01
   2.339  0.273E+01  0.271E+01
   2.349  0.280E+01  0.278E+01
   2.359  0.284E+01  0.282E+01
   2.369  0.286E+01  0.284E+01
   2.379  0.285E+01  0.283E+01
   2.389  0.282E+01  0.280E+01
   2.399  0.277E+01  0.275E+01
   2.409  0.269E+01  0.267E+01
   2.419  0.259E+01  0.257E+01
   2.429  0.248E+01  0.246E+01
   2.439  0.234E+01  0.233E+01
   2.449  0.220E+01  0.218E+01
   2.459  0.204E+01  0.203E+01
   2.469  0.188E+01  0.187E+01
   2.479  0.172E+01  0.171E+01
   2.489  0.156E+01  0.155E+01
   2.499  0.140E+01  0.139E+01
   2.509  0.124E+01  0.123E+01
   2.519  0.109E+01  0.108E+01
   2.529  0.951E+00  0.944E+00
   2.539  0.822E+00  0.816E+00
   2.549  0.703E+00  0.698E+00
   2.559  0.596E+00  0.592E+00
   2.569  0.501E+00  0.497E+00
   2.579  0.417E+00  0.414E+00
   2.589  0.344E+00  0.341E+00
   2.599  0.281E+00  0.279E+00
   2.609  0.228E+00  0.227E+00
   2.619  0.184E+00  0.183E+00
   2.629  0.148E+00  0.147E+00
   2.639  0.119E+00  0.118E+00
   2.649  0.966E-01  0.959E-01
   2.659  0.798E-01  0.793E-01
   2.669  0.682E-01  0.677E-01
   2.679  0.613E-01  0.608E-01
   2.689  0.587E-01  0.582E-01
   2.699  0.603E-01  0.598E-01
   2.709  0.659E-01  0.654E-01
   2.719  0.756E-01  0.750E-01
   2.729  0.894E-01  0.886E-01
   2.739  0.107E+00  0.106E+00
   2.749  0.130E+00  0.129E+00
   2.759  0.157E+00  0.155E+00
   2.769  0.188E+00  0.187E+00
   2.779  0.225E+00  0.223E+00
   2.789  0.266E+00  0.263E+00
   2.799  0.311E+00  0.308E+00
   2.809  0.360E+00  0.357E+00
   2.819  0.413E+00  0.410E+00
   2.829  0.469E+00  0.465E+00
   2.839  0.527E+00  0.523E+00
   2.849  0.586E+00  0.581E+00
   2.859  0.645E+00  0.639E+00
   2.869  0.702E+00  0.696E+00
   2.879  0.756E+00  0.750E+00
   2.889  0.807E+00  0.800E+00
   2.899  0.852E+00  0.845E+00
   2.909  0.892E+00  0.884E+00
   2.919  0.924E+00  0.916E+00
   2.929  0.949E+00  0.941E+00
   2.939  0.968E+00  0.959E+00
   2.949  0.979E+00  0.970E+00
   2.959  0.984E+00  0.975E+00
   2.969  0.983E+00  0.975E+00
   2.979  0.979E+00  0.971E+00
   2.989  0.973E+00  0.964E+00
   2.999  0.966E+00  0.958E+00
   3.009  0.961E+00  0.953E+00
   3.019  0.960E+00  0.952E+00
   3.029  0.965E+00  0.957E+00
   3.039  0.978E+00  0.970E+00
   3.049  0.999E+00  0.991E+00
   3.059  0.103E+01  0.102E+01
   3.069  0.107E+01  0.106E+01
   3.079  0.113E+01  0.112E+01
   3.089  0.119E+01  0.118E+01
   3.099  0.127E+01  0.126E+01
   3.109  0.135E+01  0.134E+01
   3.119  0.144E+01  0.142E+01
   3.129  0.153E+01  0.152E+01
   3.139  0.162E+01  0.161E+01
   3.149  0.171E+01  0.170E+01
   3.159  0.180E+01  0.178E+01
   3.169  0.188E+01  0.186E+01
   3.179  0.194E+01  0.193E+01
   3.189  0.200E+01  0.198E+01
   3.199  0.204E+01  0.202E+01
   3.209  0.207E+01  0.205E+01
   3.219  0.208E+01  0.206E+01
   3.229  0.207E+01  0.205E+01
   3.239  0.205E+01  0.203E+01
   3.249  0.201E+01  0.199E+01
   3.259  0.196E+01  0.194E+01
   3.269  0.190E+01  0.188E+01
   3.279  0.183E+01  0.182E+01
   3.289  0.176E+01  0.175E+01
   3.299  0.169E+01  0.168E+01
   3.309  0.162E+01  0.161E+01
   3.319  0.156E+01  0.154E+01
   3.329  0.150E+01  0.149E+01
   3.339  0.145E+01  0.144E+01
   3.349  0.141E+01  0.139E+01
   3.359  0.138E+01  0.137E+01
   3.369  0.136E+01  0.135E+01
   3.379  0.135E+01  0.134E+01
   3.389  0.135E+01  0.134E+01
   3.399  0.137E+01  0.136E+01
   3.409  0.139E+01  0.138E+01
   3.419  0.142E+01  0.141E+01
   3.429  0.146E+01  0.144E+01
   3.439  0.150E+01  0.149E+01
   3.449  0.154E+01  0.153E+01
   3.459  0.159E+01  0.158E+01
   3.469  0.164E+01  0.163E+01
   3.479  0.169E+01  0.167E+01
   3.489  0.174E+01  0.172E+01
   3.499  0.178E+01  0.177E+01
   3.509  0.183E+01  0.181E+01
   3.519  0.187E+01  0.185E+01
   3.529  0.191E+01  0.189E+01
   3.539  0.194E+01  0.192E+01
   3.549  0.197E+01  0.195E+01
   3.559  0.199E+01  0.197E+01
   3.569  0.201E+01  0.199E+01
   3.579  0.202E+01  0.200E+01
   3.589  0.203E+01  0.201E+01
   3.599  0.203E+01  0.200E+01
   3.609  0.202E+01  0.200E+01
   3.619  0.200E+01  0.198E+01
   3.629  0.198E+01  0.196E+01
   3.639  0.195E+01  0.192E+01
   3.649  0.191E+01  0.189E+01
   3.659  0.186E+01  0.184E+01
   3.669  0.181E+01  0.179E+01
   3.679  0.176E+01  0.174E+01
   3.689  0.170E+01  0.168E+01
   3.699  0.164E+01  0.162E+01
   3.709  0.158E+01  0.156E+01
   3.719  0.151E+01  0.150E+01
   3.729  0.145E+01  0.144E+01
   3.739  0.139E+01  0.138E+01
   3.749  0.134E+01  0.133E+01
   3.759  0.129E+01  0.128E+01
   3.769  0.125E+01  0.124E+01
   3.779  0.122E+01  0.120E+01
   3.789  0.119E+01  0.118E+01
   3.799  0.118E+01  0.116E+01
   3.809  0.117E+01  0.116E+01
   3.819  0.117E+01  0.116E+01
   3.829  0.118E+01  0.117E+01
   3.839  0.120E+01  0.119E+01
   3.849  0.123E+01  0.121E+01
   3.859  0.126E+01  0.124E+01
   3.869  0.129E+01  0.128E+01
   3.879  0.133E+01  0.131E+01
   3.889  0.136E+01  0.135E+01
   3.899  0.140E+01  0.138E+01
   3.909  0.143E+01  0.142E+01
   3.919  0.146E+01  0.144E+01
   3.929  0.148E+01  0.146E+01
   3.939  0.150E+01  0.148E+01
   3.949  0.150E+01  0.148E+01
   3.959  0.150E+01  0.148E+01
   3.969  0.149E+01  0.147E+01
   3.979  0.147E+01  0.146E+01
   3.989  0.145E+01  0.143E+01
   3.999  0.142E+01  0.140E+01
   4.009  0.139E+01  0.137E+01
   4.019  0.135E+01  0.134E+01
   4.029  0.132E+01  0.130E+01
   4.039  0.129E+01  0.127E+01
   4.049  0.126E+01  0.124E+01
   4.059  0.124E+01  0.122E+01
   4.069  0.123E+01  0.121E+01
   4.079  0.122E+01  0.121E+01
   4.089  0.123E+01  0.122E+01
   4.099  0.125E+01  0.124E+01
   4.109  0.128E+01  0.127E+01
   4.119  0.133E+01  0.131E+01
   4.129  0.138E+01  0.136E+01
   4.139  0.144E+01  0.142E+01
   4.149  0.150E+01  0.148E+01
   4.159  0.157E+01  0.155E+01
   4.169  0.163E+01  0.161E+01
   4.179  0.169E+01  0.168E+01
   4.189  0.175E+01  0.173E+01
   4.199  0.180E+01  0.178E+01
   4.209  0.183E+01  0.181E+01
   4.219  0.186E+01  0.184E+01
   4.229  0.186E+01  0.184E+01
   4.239  0.185E+01  0.183E+01
   4.249  0.182E+01  0.180E+01
   4.259  0.178E+01  0.176E+01
   4.269  0.172E+01  0.170E+01
   4.279  0.164E+01  0.163E+01
   4.289  0.156E+01  0.154E+01
   4.299  0.146E+01  0.144E+01
   4.309  0.135E+01  0.134E+01
   4.319  0.124E+01  0.123E+01
   4.329  0.113E+01  0.112E+01
   4.339  0.102E+01  0.100E+01
   4.349  0.904E+00  0.894E+00
   4.359  0.797E+00  0.788E+00
   4.369  0.695E+00  0.688E+00
   4.379  0.601E+00  0.595E+00
   4.389  0.515E+00  0.510E+00
   4.399  0.438E+00  0.433E+00
   4.409  0.370E+00  0.366E+00
   4.419  0.312E+00  0.309E+00
   4.429  0.264E+00  0.261E+00
   4.439  0.224E+00  0.222E+00
   4.449  0.194E+00  0.192E+00
   4.459  0.172E+00  0.170E+00
   4.469  0.159E+00  0.157E+00
   4.479  0.154E+00  0.152E+00
   4.489  0.157E+00  0.155E+00
   4.499  0.168E+00  0.166E+00
   4.509  0.186E+00  0.184E+00
   4.519  0.212E+00  0.209E+00
   4.529  0.245E+00  0.242E+00
   4.539  0.285E+00  0.282E+00
   4.549  0.332E+00  0.328E+00
   4.559  0.387E+00  0.382E+00
   4.569  0.447E+00  0.442E+00
   4.579  0.514E+00  0.507E+00
   4.589  0.585E+00  0.578E+00
   4.599  0.662E+00  0.654E+00
   4.609  0.741E+00  0.732E+00
   4.619  0.823E+00  0.813E+00
   4.629  0.906E+00  0.895E+00
   4.639  0.989E+00  0.976E+00
   4.649  0.107E+01  0.106E+01
   4.659  0.115E+01  0.113E+01
   4.669  0.122E+01  0.120E+01
   4.679  0.129E+01  0.127E+01
   4.689  0.135E+01  0.133E+01
   4.699  0.140E+01  0.138E+01
   4.709  0.144E+01  0.142E+01
   4.719  0.147E+01  0.145E+01
   4.729  0.149E+01  0.147E+01
   4.739  0.150E+01  0.148E+01
   4.749  0.150E+01  0.148E+01
   4.759  0.149E+01  0.147E+01
   4.769  0.147E+01  0.145E+01
   4.779  0.144E+01  0.142E+01
   4.789  0.141E+01  0.139E+01
   4.799  0.137E+01  0.135E+01
   4.809  0.132E+01  0.130E+01
   4.819  0.127E+01  0.125E+01
   4.829  0.122E+01  0.120E+01
   4.839  0.117E+01  0.115E+01
   4.849  0.112E+01  0.111E+01
   4.859  0.107E+01  0.106E+01
   4.869  0.103E+01  0.102E+01
   4.879  0.989E+00  0.975E+00
   4.889  0.952E+00  0.938E+00
   4.899  0.919E+00  0.906E+00
   4.909  0.890E+00  0.877E+00
   4.919  0.865E+00  0.852E+00
   4.929  0.843E+00  0.830E+00
   4.939  0.822E+00  0.810E+00
   4.949  0.803E+00  0.791E+00
   4.959  0.785E+00  0.773E+00
   4.969  0.766E+00  0.754E+00
   4.979  0.745E+00  0.734E+00
   4.989  0.723E+00  0.712E+00
   4.999  0.698E+00  0.687E+00
   5.009  0.670E+00  0.660E+00
   5.019  0.639E+00  0.629E+00
   5.029  0.605E+00  0.596E+00
   5.039  0.569E+00  0.560E+00
   5.049  0.530E+00  0.522E+00
   5.059  0.490E+00  0.483E+00
   5.069  0.449E+00  0.442E+00
   5.079  0.407E+00  0.401E+00
   5.089  0.366E+00  0.361E+00
   5.099  0.326E+00  0.322E+00
   5.109  0.288E+00  0.284E+00
   5.119  0.252E+00  0.249E+00
   5.129  0.219E+00  0.216E+00
   5.139  0.190E+00  0.187E+00
   5.149  0.163E+00  0.161E+00
   5.159  0.141E+00  0.139E+00
   5.169  0.122E+00  0.120E+00
   5.179  0.107E+00  0.106E+00
   5.189  0.966E-01  0.950E-01
   5.199  0.898E-01  0.883E-01
   5.209  0.870E-01  0.855E-01
   5.219  0.881E-01  0.866E-01
   5.229  0.932E-01  0.916E-01
   5.239  0.102E+00  0.100E+00
   5.249  0.115E+00  0.113E+00
   5.259  0.132E+00  0.130E+00
   5.269  0.153E+00  0.150E+00
   5.279  0.178E+00  0.175E+00
   5.289  0.206E+00  0.202E+00
   5.299  0.238E+00  0.234E+00
   5.309  0.274E+00  0.269E+00
   5.319  0.312E+00  0.306E+00
   5.329  0.354E+00  0.347E+00
   5.339  0.397E+00  0.390E+00
   5.349  0.443E+00  0.434E+00
   5.359  0.490E+00  0.480E+00
   5.369  0.537E+00  0.526E+00
   5.379  0.585E+00  0.573E+00
   5.389  0.631E+00  0.619E+00
   5.399  0.677E+00  0.663E+00
   5.409  0.720E+00  0.705E+00
   5.419  0.760E+00  0.744E+00
   5.429  0.797E+00  0.780E+00
   5.439  0.830E+00  0.812E+00
   5.449  0.858E+00  0.839E+00
   5.459  0.880E+00  0.861E+00
   5.469  0.897E+00  0.877E+00
   5.479  0.907E+00  0.887E+00
   5.489  0.911E+00  0.890E+00
   5.499  0.908E+00  0.888E+00
   5.509  0.899E+00  0.878E+00
   5.519  0.883E+00  0.863E+00
   5.529  0.861E+00  0.841E+00
   5.539  0.833E+00  0.813E+00
   5.549  0.799E+00  0.780E+00
   5.559  0.761E+00  0.743E+00
   5.569  0.718E+00  0.701E+00
   5.579  0.673E+00  0.656E+00
   5.589  0.624E+00  0.609E+00
   5.599  0.574E+00  0.560E+00
   5.609  0.524E+00  0.511E+00
   5.619  0.473E+00  0.462E+00
   5.629  0.424E+00  0.413E+00
   5.639  0.376E+00  0.367E+00
   5.649  0.330E+00  0.322E+00
   5.659  0.287E+00  0.280E+00
   5.669  0.248E+00  0.242E+00
   5.679  0.212E+00  0.206E+00
   5.689  0.179E+00  0.175E+00
   5.699  0.150E+00  0.147E+00
   5.709  0.125E+00  0.122E+00
   5.719  0.104E+00  0.101E+00
   5.729  0.855E-01  0.833E-01
   5.739  0.704E-01  0.686E-01
   5.749  0.582E-01  0.567E-01
   5.759  0.487E-01  0.474E-01
   5.769  0.416E-01  0.404E-01
   5.779  0.367E-01  0.356E-01
   5.789  0.337E-01  0.327E-01
   5.799  0.325E-01  0.315E-01
   5.809  0.329E-01  0.317E-01
   5.819  0.346E-01  0.334E-01
   5.829  0.375E-01  0.362E-01
   5.839  0.415E-01  0.400E-01
   5.849  0.464E-01  0.447E-01
   5.859  0.521E-01  0.501E-01
   5.869  0.583E-01  0.561E-01
   5.879  0.650E-01  0.625E-01
   5.889  0.719E-01  0.692E-01
   5.899  0.789E-01  0.759E-01
   5.909  0.858E-01  0.825E-01
   5.919  0.923E-01  0.888E-01
   5.929  0.984E-01  0.946E-01
   5.939  0.104E+00  0.997E-01
   5.949  0.108E+00  0.104E+00
   5.959  0.112E+00  0.107E+00
   5.969  0.114E+00  0.110E+00
   5.979  0.115E+00  0.111E+00
   5.989  0.115E+00  0.111E+00
   5.999  0.114E+00  0.109E+00
   6.009  0.111E+00  0.107E+00
   6.019  0.108E+00  0.103E+00
   6.029  0.103E+00  0.990E-01
   6.039  0.974E-01  0.937E-01
   6.049  0.912E-01  0.878E-01
   6.059  0.845E-01  0.813E-01
   6.069  0.775E-01  0.745E-01
   6.079  0.702E-01  0.676E-01
   6.089  0.630E-01  0.606E-01
   6.099  0.559E-01  0.538E-01
   6.109  0.491E-01  0.472E-01
   6.119  0.426E-01  0.410E-01
   6.129  0.366E-01  0.352E-01
   6.139  0.311E-01  0.299E-01
   6.149  0.261E-01  0.252E-01
   6.159  0.218E-01  0.209E-01
   6.169  0.179E-01  0.172E-01
   6.179  0.146E-01  0.140E-01
   6.189  0.118E-01  0.113E-01
   6.199  0.939E-02  0.903E-02
   6.209  0.745E-02  0.716E-02
   6.219  0.588E-02  0.564E-02
   6.229  0.464E-02  0.444E-02
   6.239  0.370E-02  0.352E-02
   6.249  0.302E-02  0.286E-02
   6.259  0.260E-02  0.243E-02
   6.269  0.242E-02  0.222E-02
   6.279  0.247E-02  0.224E-02
   6.289  0.279E-02  0.248E-02
   6.299  0.339E-02  0.298E-02
   6.309  0.433E-02  0.378E-02
   6.319  0.568E-02  0.494E-02
   6.329  0.751E-02  0.652E-02
   6.339  0.994E-02  0.862E-02
   6.349  0.131E-01  0.114E-01
   6.359  0.171E-01  0.148E-01
   6.369  0.221E-01  0.192E-01
   6.379  0.284E-01  0.247E-01
   6.389  0.360E-01  0.313E-01
   6.399  0.452E-01  0.393E-01
   6.409  0.562E-01  0.489E-01
   6.419  0.691E-01  0.601E-01
   6.429  0.840E-01  0.732E-01
   6.439  0.101E+00  0.881E-01
   6.449  0.120E+00  0.105E+00
   6.459  0.142E+00  0.124E+00
   6.469  0.165E+00  0.144E+00
   6.479  0.190E+00  0.166E+00
   6.489  0.217E+00  0.190E+00
   6.499  0.245E+00  0.214E+00
   6.509  0.274E+00  0.240E+00
   6.519  0.303E+00  0.265E+00
   6.529  0.331E+00  0.290E+00
   6.539  0.358E+00  0.313E+00
   6.549  0.383E+00  0.336E+00
   6.559  0.405E+00  0.356E+00
   6.569  0.424E+00  0.373E+00
   6.579  0.440E+00  0.386E+00
   6.589  0.451E+00  0.397E+00
   6.599  0.458E+00  0.403E+00
   6.609  0.460E+00  0.405E+00
   6.619  0.457E+00  0.403E+00
   6.629  0.450E+00  0.397E+00
   6.639  0.439E+00  0.387E+00
   6.649  0.424E+00  0.374E+00
   6.659  0.407E+00  0.359E+00
   6.669  0.387E+00  0.341E+00
   6.679  0.366E+00  0.323E+00
   6.689  0.344E+00  0.303E+00
   6.699  0.324E+00  0.285E+00
   6.709  0.304E+00  0.268E+00
   6.719  0.288E+00  0.252E+00
   6.729  0.275E+00  0.240E+00
   6.739  0.266E+00  0.232E+00
   6.749  0.263E+00  0.228E+00
   6.759  0.265E+00  0.228E+00
   6.769  0.273E+00  0.234E+00
   6.779  0.288E+00  0.246E+00
   6.789  0.309E+00  0.263E+00
   6.799  0.337E+00  0.286E+00
   6.809  0.372E+00  0.314E+00
   6.819  0.412E+00  0.347E+00
   6.829  0.456E+00  0.384E+00
   6.839  0.505E+00  0.424E+00
   6.849  0.557E+00  0.467E+00
   6.859  0.610E+00  0.512E+00
   6.869  0.664E+00  0.556E+00
   6.879  0.716E+00  0.600E+00
   6.889  0.765E+00  0.641E+00
   6.899  0.810E+00  0.678E+00
   6.909  0.849E+00  0.710E+00
   6.919  0.880E+00  0.737E+00
   6.929  0.904E+00  0.756E+00
   6.939  0.918E+00  0.768E+00
   6.949  0.922E+00  0.772E+00
   6.959  0.917E+00  0.768E+00
   6.969  0.902E+00  0.755E+00
   6.979  0.878E+00  0.735E+00
   6.989  0.845E+00  0.707E+00
   6.999  0.805E+00  0.674E+00
   7.009  0.759E+00  0.635E+00
   7.019  0.707E+00  0.592E+00
   7.029  0.653E+00  0.546E+00
   7.039  0.595E+00  0.498E+00
   7.049  0.538E+00  0.450E+00
   7.059  0.480E+00  0.402E+00
   7.069  0.425E+00  0.356E+00
   7.079  0.372E+00  0.311E+00
   7.089  0.323E+00  0.270E+00
   7.099  0.277E+00  0.232E+00
   7.109  0.237E+00  0.198E+00
   7.119  0.201E+00  0.168E+00
   7.129  0.170E+00  0.143E+00
   7.139  0.144E+00  0.121E+00
   7.149  0.123E+00  0.104E+00
   7.159  0.106E+00  0.900E-01
   7.169  0.941E-01  0.803E-01
   7.179  0.864E-01  0.743E-01
   7.189  0.829E-01  0.717E-01
   7.199  0.832E-01  0.725E-01
   7.209  0.873E-01  0.765E-01
   7.219  0.950E-01  0.834E-01
   7.229  0.106E+00  0.934E-01
   7.239  0.120E+00  0.106E+00
   7.249  0.138E+00  0.122E+00
   7.259  0.159E+00  0.140E+00
   7.269  0.182E+00  0.160E+00
   7.279  0.209E+00  0.183E+00
   7.289  0.238E+00  0.208E+00
   7.299  0.269E+00  0.235E+00
   7.309  0.302E+00  0.263E+00
   7.319  0.337E+00  0.293E+00
   7.329  0.372E+00  0.323E+00
   7.339  0.409E+00  0.355E+00
   7.349  0.446E+00  0.386E+00
   7.359  0.483E+00  0.417E+00
   7.369  0.519E+00  0.448E+00
   7.379  0.554E+00  0.478E+00
   7.389  0.587E+00  0.506E+00
   7.399  0.618E+00  0.533E+00
   7.409  0.647E+00  0.558E+00
   7.419  0.673E+00  0.582E+00
   7.429  0.697E+00  0.603E+00
   7.439  0.718E+00  0.622E+00
   7.449  0.735E+00  0.639E+00
   7.459  0.750E+00  0.653E+00
   7.469  0.763E+00  0.666E+00
   7.479  0.772E+00  0.677E+00
   7.489  0.780E+00  0.686E+00
   7.499  0.784E+00  0.693E+00
   7.509  0.787E+00  0.698E+00
   7.519  0.787E+00  0.702E+00
   7.529  0.785E+00  0.703E+00
   7.539  0.781E+00  0.703E+00
   7.549  0.774E+00  0.700E+00
   7.559  0.766E+00  0.695E+00
   7.569  0.755E+00  0.688E+00
   7.579  0.743E+00  0.679E+00
   7.589  0.729E+00  0.668E+00
   7.599  0.714E+00  0.655E+00
   7.609  0.698E+00  0.642E+00
   7.619  0.682E+00  0.628E+00
   7.629  0.667E+00  0.614E+00
   7.639  0.654E+00  0.601E+00
   7.649  0.645E+00  0.591E+00
   7.659  0.640E+00  0.584E+00
   7.669  0.640E+00  0.581E+00
   7.679  0.648E+00  0.584E+00
   7.689  0.664E+00  0.595E+00
   7.699  0.689E+00  0.612E+00
   7.709  0.725E+00  0.639E+00
   7.719  0.771E+00  0.674E+00
   7.729  0.828E+00  0.718E+00
   7.739  0.895E+00  0.772E+00
   7.749  0.972E+00  0.833E+00
   7.759  0.106E+01  0.903E+00
   7.769  0.115E+01  0.978E+00
   7.779  0.125E+01  0.106E+01
   7.789  0.135E+01  0.114E+01
   7.799  0.145E+01  0.123E+01
   7.809  0.155E+01  0.131E+01
   7.819  0.165E+01  0.139E+01
   7.829  0.174E+01  0.146E+01
   7.839  0.182E+01  0.152E+01
   7.849  0.188E+01  0.157E+01
   7.859  0.193E+01  0.161E+01
   7.869  0.196E+01  0.164E+01
   7.879  0.198E+01  0.165E+01
   7.889  0.197E+01  0.165E+01
   7.899  0.195E+01  0.163E+01
   7.909  0.191E+01  0.160E+01
   7.919  0.186E+01  0.155E+01
   7.929  0.179E+01  0.149E+01
   7.939  0.170E+01  0.142E+01
   7.949  0.161E+01  0.134E+01
   7.959  0.151E+01  0.126E+01
   7.969  0.140E+01  0.117E+01
   7.979  0.129E+01  0.107E+01
   7.989  0.118E+01  0.983E+00
   7.999  0.107E+01  0.895E+00
   8.009  0.968E+00  0.810E+00
   8.019  0.871E+00  0.731E+00
   8.029  0.783E+00  0.660E+00
   8.039  0.705E+00  0.596E+00
   8.049  0.637E+00  0.542E+00
   8.059  0.580E+00  0.497E+00
   8.069  0.534E+00  0.462E+00
   8.079  0.500E+00  0.436E+00
   8.089  0.478E+00  0.420E+00
   8.099  0.466E+00  0.413E+00
   8.109  0.464E+00  0.414E+00
   8.119  0.471E+00  0.423E+00
   8.129  0.487E+00  0.439E+00
   8.139  0.511E+00  0.462E+00
   8.149  0.541E+00  0.490E+00
   8.159  0.578E+00  0.523E+00
   8.169  0.618E+00  0.559E+00
   8.179  0.663E+00  0.598E+00
   8.189  0.710E+00  0.639E+00
   8.199  0.759E+00  0.681E+00
   8.209  0.809E+00  0.724E+00
   8.219  0.858E+00  0.765E+00
   8.229  0.905E+00  0.805E+00
   8.239  0.949E+00  0.842E+00
   8.249  0.990E+00  0.875E+00
   8.259  0.103E+01  0.904E+00
   8.269  0.106E+01  0.928E+00
   8.279  0.108E+01  0.947E+00
   8.289  0.110E+01  0.959E+00
   8.299  0.110E+01  0.965E+00
   8.309  0.111E+01  0.964E+00
   8.319  0.110E+01  0.958E+00
   8.329  0.109E+01  0.945E+00
   8.339  0.107E+01  0.927E+00
   8.349  0.105E+01  0.905E+00
   8.359  0.102E+01  0.880E+00
   8.369  0.995E+00  0.853E+00
   8.379  0.967E+00  0.826E+00
   8.389  0.942E+00  0.799E+00
   8.399  0.920E+00  0.775E+00
   8.409  0.904E+00  0.755E+00
   8.419  0.896E+00  0.741E+00
   8.429  0.897E+00  0.733E+00
   8.439  0.909E+00  0.733E+00
   8.449  0.932E+00  0.742E+00
   8.459  0.967E+00  0.760E+00
   8.469  0.102E+01  0.787E+00
   8.479  0.108E+01  0.824E+00
   8.489  0.115E+01  0.869E+00
   8.499  0.123E+01  0.923E+00
   8.509  0.132E+01  0.984E+00
   8.519  0.142E+01  0.105E+01
   8.529  0.152E+01  0.112E+01
   8.539  0.163E+01  0.120E+01
   8.549  0.174E+01  0.127E+01
   8.559  0.184E+01  0.135E+01
   8.569  0.194E+01  0.142E+01
   8.579  0.204E+01  0.149E+01
   8.589  0.212E+01  0.155E+01
   8.599  0.219E+01  0.161E+01
   8.609  0.225E+01  0.166E+01
   8.619  0.230E+01  0.170E+01
   8.629  0.233E+01  0.173E+01
   8.639  0.234E+01  0.175E+01
   8.649  0.234E+01  0.175E+01
   8.659  0.233E+01  0.175E+01
   8.669  0.230E+01  0.174E+01
   8.679  0.226E+01  0.172E+01
   8.689  0.221E+01  0.170E+01
   8.699  0.215E+01  0.166E+01
   8.709  0.208E+01  0.162E+01
   8.719  0.200E+01  0.157E+01
   8.729  0.192E+01  0.152E+01
   8.739  0.184E+01  0.147E+01
   8.749  0.175E+01  0.141E+01
   8.759  0.167E+01  0.135E+01
   8.769  0.158E+01  0.129E+01
   8.779  0.149E+01  0.123E+01
   8.789  0.141E+01  0.118E+01
   8.799  0.133E+01  0.112E+01
   8.809  0.126E+01  0.106E+01
   8.819  0.119E+01  0.101E+01
   8.829  0.112E+01  0.963E+00
   8.839  0.106E+01  0.916E+00
   8.849  0.999E+00  0.871E+00
   8.859  0.944E+00  0.830E+00
   8.869  0.895E+00  0.791E+00
   8.879  0.849E+00  0.755E+00
   8.889  0.807E+00  0.722E+00
   8.899  0.769E+00  0.692E+00
   8.909  0.735E+00  0.665E+00
   8.919  0.705E+00  0.640E+00
   8.929  0.680E+00  0.619E+00
   8.939  0.658E+00  0.602E+00
   8.949  0.642E+00  0.588E+00
   8.959  0.631E+00  0.579E+00
   8.969  0.625E+00  0.574E+00
   8.979  0.626E+00  0.575E+00
   8.989  0.632E+00  0.580E+00
   8.999  0.645E+00  0.590E+00
   9.009  0.664E+00  0.606E+00
   9.019  0.690E+00  0.627E+00
   9.029  0.723E+00  0.653E+00
   9.039  0.762E+00  0.683E+00
   9.049  0.806E+00  0.718E+00
   9.059  0.856E+00  0.756E+00
   9.069  0.910E+00  0.796E+00
   9.079  0.968E+00  0.839E+00
   9.089  0.103E+01  0.884E+00
   9.099  0.109E+01  0.929E+00
   9.109  0.116E+01  0.974E+00
   9.119  0.122E+01  0.102E+01
   9.129  0.129E+01  0.106E+01
   9.139  0.136E+01  0.110E+01
   9.149  0.142E+01  0.114E+01
   9.159  0.148E+01  0.118E+01
   9.169  0.154E+01  0.121E+01
   9.179  0.159E+01  0.124E+01
   9.189  0.164E+01  0.127E+01
   9.199  0.168E+01  0.129E+01
   9.209  0.173E+01  0.132E+01
   9.219  0.176E+01  0.134E+01
   9.229  0.180E+01  0.136E+01
   9.239  0.183E+01  0.138E+01
   9.249  0.186E+01  0.140E+01
   9.259  0.188E+01  0.142E+01
   9.269  0.191E+01  0.144E+01
   9.279  0.194E+01  0.147E+01
   9.289  0.197E+01  0.149E+01
   9.299  0.200E+01  0.152E+01
   9.309  0.203E+01  0.156E+01
   9.319  0.207E+01  0.160E+01
   9.329  0.211E+01  0.164E+01
   9.339  0.215E+01  0.168E+01
   9.349  0.219E+01  0.172E+01
   9.359  0.223E+01  0.176E+01
   9.369  0.227E+01  0.180E+01
   9.379  0.231E+01  0.184E+01
   9.389  0.234E+01  0.187E+01
   9.399  0.237E+01  0.189E+01
   9.409  0.239E+01  0.191E+01
   9.419  0.240E+01  0.191E+01
   9.429  0.240E+01  0.191E+01
   9.439  0.239E+01  0.190E+01
   9.449  0.238E+01  0.187E+01
   9.459  0.235E+01  0.183E+01
   9.469  0.231E+01  0.179E+01
   9.479  0.227E+01  0.174E+01
   9.489  0.222E+01  0.168E+01
   9.499  0.216E+01  0.161E+01
   9.509  0.210E+01  0.154E+01
   9.519  0.204E+01  0.147E+01
   9.529  0.197E+01  0.140E+01
   9.539  0.191E+01  0.133E+01
   9.549  0.184E+01  0.126E+01
   9.559  0.178E+01  0.120E+01
   9.569  0.172E+01  0.114E+01
   9.579  0.165E+01  0.108E+01
   9.589  0.159E+01  0.103E+01
   9.599  0.154E+01  0.980E+00
   9.609  0.148E+01  0.937E+00
   9.619  0.142E+01  0.899E+00
   9.629  0.137E+01  0.865E+00
   9.639  0.132E+01  0.836E+00
   9.649  0.127E+01  0.810E+00
   9.659  0.122E+01  0.788E+00
   9.669  0.118E+01  0.769E+00
   9.679  0.114E+01  0.754E+00
   9.689  0.111E+01  0.742E+00
   9.699  0.108E+01  0.734E+00
   9.709  0.105E+01  0.730E+00
   9.719  0.103E+01  0.730E+00
   9.729  0.103E+01  0.735E+00
   9.739  0.103E+01  0.745E+00
   9.749  0.104E+01  0.761E+00
   9.759  0.106E+01  0.784E+00
   9.769  0.109E+01  0.814E+00
   9.779  0.114E+01  0.853E+00
   9.789  0.120E+01  0.900E+00
   9.799  0.127E+01  0.956E+00
   9.809  0.136E+01  0.102E+01
   9.819  0.146E+01  0.110E+01
   9.829  0.157E+01  0.118E+01
   9.839  0.169E+01  0.127E+01
   9.849  0.182E+01  0.137E+01
   9.859  0.197E+01  0.147E+01
   9.869  0.211E+01  0.158E+01
   9.879  0.226E+01  0.169E+01
   9.889  0.241E+01  0.180E+01
   9.899  0.256E+01  0.192E+01
   9.909  0.270E+01  0.202E+01
   9.919  0.284E+01  0.213E+01
   9.929  0.296E+01  0.223E+01
   9.939  0.308E+01  0.232E+01
   9.949  0.319E+01  0.240E+01
   9.959  0.328E+01  0.248E+01
   9.969  0.335E+01  0.254E+01
   9.979  0.342E+01  0.259E+01
   9.989  0.346E+01  0.264E+01
   9.999  0.350E+01  0.267E+01
  10.009  0.351E+01  0.269E+01
  10.019  0.352E+01  0.270E+01
  10.029  0.351E+01  0.271E+01
  10.039  0.349E+01  0.270E+01
  10.049  0.346E+01  0.268E+01
  10.059  0.342E+01  0.266E+01
  10.069  0.336E+01  0.262E+01
  10.079  0.330E+01  0.258E+01
  10.089  0.322E+01  0.253E+01
  10.099  0.314E+01  0.247E+01
  10.109  0.304E+01  0.240E+01
  10.119  0.294E+01  0.233E+01
  10.129  0.283E+01  0.225E+01
  10.139  0.272E+01  0.217E+01
  10.149  0.260E+01  0.207E+01
  10.159  0.247E+01  0.198E+01
  10.169  0.235E+01  0.189E+01
  10.179  0.222E+01  0.179E+01
  10.189  0.210E+01  0.169E+01
  10.199  0.198E+01  0.160E+01
  10.209  0.187E+01  0.150E+01
  10.219  0.176E+01  0.142E+01
  10.229  0.166E+01  0.133E+01
  10.239  0.157E+01  0.126E+01
  10.249  0.150E+01  0.119E+01
  10.259  0.143E+01  0.113E+01
  10.269  0.138E+01  0.107E+01
  10.279  0.134E+01  0.103E+01
  10.289  0.131E+01  0.990E+00
  10.299  0.129E+01  0.962E+00
  10.309  0.128E+01  0.941E+00
  10.319  0.129E+01  0.927E+00
  10.329  0.130E+01  0.921E+00
  10.339  0.132E+01  0.920E+00
  10.349  0.134E+01  0.925E+00
  10.359  0.137E+01  0.934E+00
  10.369  0.140E+01  0.947E+00
  10.379  0.143E+01  0.962E+00
  10.389  0.147E+01  0.978E+00
  10.399  0.150E+01  0.995E+00
  10.409  0.152E+01  0.101E+01
  10.419  0.155E+01  0.103E+01
  10.429  0.156E+01  0.104E+01
  10.439  0.157E+01  0.105E+01
  10.449  0.158E+01  0.105E+01
  10.459  0.157E+01  0.105E+01
  10.469  0.156E+01  0.105E+01
  10.479  0.153E+01  0.104E+01
  10.489  0.150E+01  0.102E+01
  10.499  0.146E+01  0.997E+00
  10.509  0.141E+01  0.969E+00
  10.519  0.136E+01  0.936E+00
  10.529  0.130E+01  0.897E+00
  10.539  0.123E+01  0.853E+00
  10.549  0.115E+01  0.806E+00
  10.559  0.108E+01  0.755E+00
  10.569  0.998E+00  0.701E+00
  10.579  0.916E+00  0.646E+00
  10.589  0.834E+00  0.590E+00
  10.599  0.753E+00  0.535E+00
  10.609  0.674E+00  0.480E+00
  10.619  0.599E+00  0.427E+00
  10.629  0.527E+00  0.377E+00
  10.639  0.460E+00  0.330E+00
  10.649  0.399E+00  0.287E+00
  10.659  0.343E+00  0.247E+00
  10.669  0.293E+00  0.212E+00
  10.679  0.250E+00  0.182E+00
  10.689  0.214E+00  0.156E+00
  10.699  0.184E+00  0.135E+00
  10.709  0.160E+00  0.118E+00
  10.719  0.143E+00  0.107E+00
  10.729  0.132E+00  0.998E-01
  10.739  0.128E+00  0.977E-01
  10.749  0.129E+00  0.100E+00
  10.759  0.137E+00  0.107E+00
  10.769  0.151E+00  0.119E+00
  10.779  0.170E+00  0.136E+00
  10.789  0.196E+00  0.157E+00
  10.799  0.227E+00  0.183E+00
  10.809  0.264E+00  0.213E+00
  10.819  0.306E+00  0.247E+00
  10.829  0.353E+00  0.285E+00
  10.839  0.404E+00  0.327E+00
  10.849  0.458E+00  0.371E+00
  10.859  0.514E+00  0.416E+00
  10.869  0.572E+00  0.463E+00
  10.879  0.630E+00  0.510E+00
  10.889  0.686E+00  0.556E+00
  10.899  0.740E+00  0.599E+00
  10.909  0.789E+00  0.639E+00
  10.919  0.833E+00  0.675E+00
  10.929  0.870E+00  0.706E+00
  10.939  0.900E+00  0.730E+00
  10.949  0.921E+00  0.747E+00
  10.959  0.934E+00  0.758E+00
  10.969  0.937E+00  0.761E+00
  10.979  0.931E+00  0.757E+00
  10.989  0.916E+00  0.746E+00
  10.999  0.894E+00  0.729E+00
  11.009  0.865E+00  0.706E+00
  11.019  0.831E+00  0.680E+00
  11.029  0.792E+00  0.650E+00
  11.039  0.750E+00  0.618E+00
  11.049  0.708E+00  0.585E+00
  11.059  0.665E+00  0.553E+00
  11.069  0.624E+00  0.522E+00
  11.079  0.585E+00  0.492E+00
  11.089  0.548E+00  0.466E+00
  11.099  0.516E+00  0.442E+00
  11.109  0.487E+00  0.421E+00
  11.119  0.463E+00  0.404E+00
  11.129  0.442E+00  0.390E+00
  11.139  0.425E+00  0.378E+00
  11.149  0.410E+00  0.368E+00
  11.159  0.398E+00  0.361E+00
  11.169  0.388E+00  0.354E+00
  11.179  0.379E+00  0.347E+00
  11.189  0.370E+00  0.341E+00
  11.199  0.362E+00  0.334E+00
  11.209  0.354E+00  0.327E+00
  11.219  0.345E+00  0.318E+00
  11.229  0.336E+00  0.309E+00
  11.239  0.327E+00  0.299E+00
  11.249  0.317E+00  0.289E+00
  11.259  0.308E+00  0.278E+00
  11.269  0.300E+00  0.267E+00
  11.279  0.293E+00  0.257E+00
  11.289  0.288E+00  0.247E+00
  11.299  0.284E+00  0.239E+00
  11.309  0.284E+00  0.233E+00
  11.319  0.286E+00  0.228E+00
  11.329  0.291E+00  0.226E+00
  11.339  0.300E+00  0.226E+00
  11.349  0.312E+00  0.229E+00
  11.359  0.326E+00  0.233E+00
  11.369  0.343E+00  0.240E+00
  11.379  0.362E+00  0.248E+00
  11.389  0.383E+00  0.257E+00
  11.399  0.404E+00  0.267E+00
  11.409  0.426E+00  0.278E+00
  11.419  0.447E+00  0.287E+00
  11.429  0.467E+00  0.296E+00
  11.439  0.485E+00  0.304E+00
  11.449  0.501E+00  0.310E+00
  11.459  0.515E+00  0.314E+00
  11.469  0.526E+00  0.316E+00
  11.479  0.535E+00  0.315E+00
  11.489  0.541E+00  0.312E+00
  11.499  0.546E+00  0.307E+00
  11.509  0.548E+00  0.299E+00
  11.519  0.549E+00  0.290E+00
  11.529  0.549E+00  0.280E+00
  11.539  0.549E+00  0.269E+00
  11.549  0.549E+00  0.256E+00
  11.559  0.548E+00  0.244E+00
  11.569  0.548E+00  0.231E+00
  11.579  0.549E+00  0.219E+00
  11.589  0.549E+00  0.207E+00
  11.599  0.550E+00  0.195E+00
  11.609  0.550E+00  0.185E+00
  11.619  0.549E+00  0.175E+00
  11.629  0.548E+00  0.166E+00
  11.639  0.545E+00  0.157E+00
  11.649  0.540E+00  0.149E+00
  11.659  0.533E+00  0.142E+00
  11.669  0.525E+00  0.136E+00
  11.679  0.514E+00  0.129E+00
  11.689  0.501E+00  0.124E+00
  11.699  0.487E+00  0.119E+00
  11.709  0.473E+00  0.114E+00
  11.719  0.458E+00  0.111E+00
  11.729  0.444E+00  0.108E+00
  11.739  0.431E+00  0.107E+00
  11.749  0.422E+00  0.107E+00
  11.759  0.415E+00  0.108E+00
  11.769  0.414E+00  0.111E+00
  11.779  0.417E+00  0.116E+00
  11.789  0.426E+00  0.123E+00
  11.799  0.441E+00  0.132E+00
  11.809  0.462E+00  0.143E+00
  11.819  0.490E+00  0.155E+00
  11.829  0.523E+00  0.170E+00
  11.839  0.561E+00  0.186E+00
  11.849  0.602E+00  0.203E+00
  11.859  0.647E+00  0.220E+00
  11.869  0.693E+00  0.238E+00
  11.879  0.739E+00  0.256E+00
  11.889  0.783E+00  0.272E+00
  11.899  0.824E+00  0.288E+00
  11.909  0.860E+00  0.301E+00
  11.919  0.890E+00  0.312E+00
  11.929  0.913E+00  0.321E+00
  11.939  0.927E+00  0.327E+00
  11.949  0.933E+00  0.329E+00
  11.959  0.930E+00  0.329E+00
  11.969  0.919E+00  0.325E+00
  11.979  0.899E+00  0.319E+00
  11.989  0.872E+00  0.310E+00
  11.999  0.840E+00  0.300E+00
  12.009  0.803E+00  0.288E+00
  12.019  0.763E+00  0.276E+00
  12.029  0.723E+00  0.264E+00
  12.039  0.684E+00  0.253E+00
  12.049  0.648E+00  0.244E+00
  12.059  0.618E+00  0.238E+00
  12.069  0.594E+00  0.235E+00
  12.079  0.579E+00  0.237E+00
  12.089  0.574E+00  0.243E+00
  12.099  0.580E+00  0.255E+00
  12.109  0.598E+00  0.273E+00
  12.119  0.629E+00  0.298E+00
  12.129  0.672E+00  0.329E+00
  12.139  0.728E+00  0.367E+00
  12.149  0.796E+00  0.412E+00
  12.159  0.875E+00  0.464E+00
  12.169  0.965E+00  0.521E+00
  12.179  0.106E+01  0.584E+00
  12.189  0.117E+01  0.652E+00
  12.199  0.128E+01  0.724E+00
  12.209  0.139E+01  0.798E+00
  12.219  0.150E+01  0.873E+00
  12.229  0.161E+01  0.948E+00
  12.239  0.172E+01  0.102E+01
  12.249  0.181E+01  0.109E+01
  12.259  0.190E+01  0.116E+01
  12.269  0.198E+01  0.121E+01
  12.279  0.204E+01  0.126E+01
  12.289  0.208E+01  0.130E+01
  12.299  0.211E+01  0.133E+01
  12.309  0.212E+01  0.135E+01
  12.319  0.211E+01  0.136E+01
  12.329  0.209E+01  0.136E+01
  12.339  0.205E+01  0.134E+01
  12.349  0.199E+01  0.131E+01
  12.359  0.192E+01  0.128E+01
  12.369  0.184E+01  0.123E+01
  12.379  0.175E+01  0.118E+01
  12.389  0.166E+01  0.112E+01
  12.399  0.156E+01  0.106E+01
  12.409  0.147E+01  0.997E+00
  12.419  0.138E+01  0.935E+00
  12.429  0.129E+01  0.875E+00
  12.439  0.121E+01  0.820E+00
  12.449  0.114E+01  0.769E+00
  12.459  0.108E+01  0.724E+00
  12.469  0.103E+01  0.686E+00
  12.479  0.992E+00  0.655E+00
  12.489  0.965E+00  0.631E+00
  12.499  0.948E+00  0.614E+00
  12.509  0.940E+00  0.603E+00
  12.519  0.939E+00  0.596E+00
  12.529  0.943E+00  0.594E+00
  12.539  0.951E+00  0.595E+00
  12.549  0.961E+00  0.597E+00
  12.559  0.970E+00  0.599E+00
  12.569  0.976E+00  0.600E+00
  12.579  0.979E+00  0.600E+00
  12.589  0.977E+00  0.597E+00
  12.599  0.969E+00  0.591E+00
  12.609  0.954E+00  0.581E+00
  12.619  0.933E+00  0.568E+00
  12.629  0.907E+00  0.552E+00
  12.639  0.875E+00  0.533E+00
  12.649  0.839E+00  0.512E+00
  12.659  0.801E+00  0.490E+00
  12.669  0.762E+00  0.468E+00
  12.679  0.725E+00  0.447E+00
  12.689  0.690E+00  0.428E+00
  12.699  0.660E+00  0.412E+00
  12.709  0.636E+00  0.401E+00
  12.719  0.620E+00  0.395E+00
  12.729  0.614E+00  0.396E+00
  12.739  0.617E+00  0.403E+00
  12.749  0.631E+00  0.417E+00
  12.759  0.657E+00  0.439E+00
  12.769  0.693E+00  0.468E+00
  12.779  0.740E+00  0.504E+00
  12.789  0.796E+00  0.545E+00
  12.799  0.860E+00  0.593E+00
  12.809  0.931E+00  0.644E+00
  12.819  0.101E+01  0.699E+00
  12.829  0.109E+01  0.755E+00
  12.839  0.117E+01  0.812E+00
  12.849  0.125E+01  0.867E+00
  12.859  0.132E+01  0.920E+00
  12.869  0.140E+01  0.970E+00
  12.879  0.146E+01  0.102E+01
  12.889  0.152E+01  0.106E+01
  12.899  0.158E+01  0.109E+01
  12.909  0.162E+01  0.112E+01
  12.919  0.166E+01  0.114E+01
  12.929  0.169E+01  0.116E+01
  12.939  0.171E+01  0.117E+01
  12.949  0.173E+01  0.118E+01
  12.959  0.174E+01  0.118E+01
  12.969  0.175E+01  0.118E+01
  12.979  0.176E+01  0.118E+01
  12.989  0.176E+01  0.118E+01
  12.999  0.177E+01  0.118E+01
  13.009  0.177E+01  0.118E+01
  13.019  0.178E+01  0.117E+01
  13.029  0.178E+01  0.117E+01
  13.039  0.178E+01  0.117E+01
  13.049  0.179E+01  0.117E+01
  13.059  0.179E+01  0.117E+01
  13.069  0.179E+01  0.117E+01
  13.079  0.179E+01  0.117E+01
  13.089  0.179E+01  0.117E+01
  13.099  0.178E+01  0.117E+01
  13.109  0.178E+01  0.116E+01
  13.119  0.178E+01  0.116E+01
  13.129  0.178E+01  0.116E+01
  13.139  0.178E+01  0.117E+01
  13.149  0.178E+01  0.117E+01
  13.159  0.179E+01  0.118E+01
  13.169  0.180E+01  0.119E+01
  13.179  0.182E+01  0.120E+01
  13.189  0.184E+01  0.121E+01
  13.199  0.187E+01  0.123E+01
  13.209  0.190E+01  0.125E+01
  13.219  0.193E+01  0.127E+01
  13.229  0.196E+01  0.129E+01
  13.239  0.199E+01  0.131E+01
  13.249  0.202E+01  0.133E+01
  13.259  0.204E+01  0.134E+01
  13.269  0.205E+01  0.134E+01
  13.279  0.205E+01  0.134E+01
  13.289  0.204E+01  0.133E+01
  13.299  0.201E+01  0.131E+01
  13.309  0.198E+01  0.128E+01
  13.319  0.193E+01  0.124E+01
  13.329  0.186E+01  0.119E+01
  13.339  0.179E+01  0.114E+01
  13.349  0.170E+01  0.108E+01
  13.359  0.161E+01  0.101E+01
  13.369  0.151E+01  0.941E+00
  13.379  0.141E+01  0.867E+00
  13.389  0.130E+01  0.793E+00
  13.399  0.120E+01  0.720E+00
  13.409  0.110E+01  0.649E+00
  13.419  0.100E+01  0.581E+00
  13.429  0.912E+00  0.518E+00
  13.439  0.830E+00  0.460E+00
  13.449  0.755E+00  0.408E+00
  13.459  0.690E+00  0.363E+00
  13.469  0.633E+00  0.323E+00
  13.479  0.584E+00  0.290E+00
  13.489  0.543E+00  0.262E+00
  13.499  0.509E+00  0.240E+00
  13.509  0.482E+00  0.223E+00
  13.519  0.460E+00  0.209E+00
  13.529  0.443E+00  0.199E+00
  13.539  0.429E+00  0.192E+00
  13.549  0.418E+00  0.187E+00
  13.559  0.408E+00  0.183E+00
  13.569  0.400E+00  0.180E+00
  13.579  0.391E+00  0.178E+00
  13.589  0.381E+00  0.175E+00
  13.599  0.371E+00  0.171E+00
  13.609  0.359E+00  0.167E+00
  13.619  0.346E+00  0.163E+00
  13.629  0.330E+00  0.157E+00
  13.639  0.314E+00  0.150E+00
  13.649  0.295E+00  0.142E+00
  13.659  0.276E+00  0.133E+00
  13.669  0.255E+00  0.124E+00
  13.679  0.234E+00  0.114E+00
  13.689  0.213E+00  0.104E+00
  13.699  0.191E+00  0.941E-01
  13.709  0.170E+00  0.841E-01
  13.719  0.150E+00  0.744E-01
  13.729  0.131E+00  0.651E-01
  13.739  0.113E+00  0.564E-01
  13.749  0.970E-01  0.483E-01
  13.759  0.821E-01  0.409E-01
  13.769  0.688E-01  0.343E-01
  13.779  0.570E-01  0.285E-01
  13.789  0.468E-01  0.234E-01
  13.799  0.380E-01  0.190E-01
  13.809  0.305E-01  0.153E-01
  13.819  0.242E-01  0.121E-01
  13.829  0.190E-01  0.955E-02
  13.839  0.148E-01  0.743E-02
  13.849  0.114E-01  0.572E-02
  13.859  0.867E-02  0.435E-02
  13.869  0.653E-02  0.328E-02
  13.879  0.487E-02  0.244E-02
  13.889  0.359E-02  0.180E-02
  13.899  0.262E-02  0.131E-02
  13.909  0.189E-02  0.948E-03
  13.919  0.135E-02  0.677E-03
  13.929  0.951E-03  0.478E-03
  13.939  0.664E-03  0.334E-03
  13.949  0.459E-03  0.231E-03
  13.959  0.314E-03  0.158E-03
  13.969  0.212E-03  0.107E-03
  13.979  0.142E-03  0.713E-04
  13.989  0.939E-04  0.472E-04
  13.999  0.615E-04  0.309E-04
  14.009  0.398E-04  0.200E-04
  14.019  0.255E-04  0.128E-04
  14.029  0.162E-04  0.813E-05
  14.039  0.101E-04  0.509E-05
  14.049  0.628E-05  0.316E-05
  14.059  0.386E-05  0.194E-05
  14.069  0.234E-05  0.118E-05
  14.079  0.141E-05  0.707E-06
  14.089  0.835E-06  0.420E-06
  14.099  0.491E-06  0.247E-06
  14.109  0.285E-06  0.143E-06
  14.119  0.164E-06  0.825E-07
  14.129  0.933E-07  0.469E-07
  14.139  0.525E-07  0.264E-07
  14.149  0.292E-07  0.147E-07
  14.159  0.161E-07  0.810E-08
  14.169  0.877E-08  0.441E-08
  14.179  0.473E-08  0.238E-08
  14.189  0.252E-08  0.127E-08
  14.199  0.133E-08  0.669E-09
  14.209  0.694E-09  0.349E-09
  14.219  0.358E-09  0.180E-09
  14.229  0.183E-09  0.920E-10
  14.239  0.924E-10  0.465E-10
  14.249  0.462E-10  0.232E-10
  14.259  0.228E-10  0.115E-10
  14.269  0.112E-10  0.561E-11
  14.279  0.540E-11  0.272E-11
  14.289  0.258E-11  0.130E-11
  14.299  0.000E+00  0.000E+00
  14.309  0.000E+00  0.000E+00
  14.319  0.000E+00  0.000E+00
  14.329  0.000E+00  0.000E+00
  14.339  0.000E+00  0.000E+00
  14.349  0.000E+00  0.000E+00
  14.359  0.000E+00  0.000E+00
  14.369  0.000E+00  0.000E+00
  14.379  0.000E+00  0.000E+00
  14.389  0.000E+00  0.000E+00
  14.399  0.000E+00  0.000E+00
  14.409  0.000E+00  0.000E+00
  14.419  0.000E+00  0.000E+00
  14.429  0.000E+00  0.000E+00
  14.439  0.000E+00  0.000E+00
  14.449  0.000E+00  0.000E+00
  14.459  0.000E+00  0.000E+00
  14.469  0.000E+00  0.000E+00
  14.479  0.000E+00  0.000E+00
  14.489  0.000E+00  0.000E+00
  14.499  0.000E+00  0.000E+00
  14.509  0.000E+00  0.000E+00
  14.519  0.000E+00  0.000E+00
  14.529  0.000E+00  0.000E+00
  14.539  0.000E+00  0.000E+00
  14.549  0.000E+00  0.000E+00
  14.559  0.000E+00  0.000E+00
  14.569  0.000E+00  0.000E+00
  14.579  0.000E+00  0.000E+00
  14.589  0.000E+00  0.000E+00
  14.599  0.000E+00  0.000E+00
  14.609  0.000E+00  0.000E+00
  14.619  0.000E+00  0.000E+00
  14.629  0.000E+00  0.000E+00
  14.639  0.000E+00  0.000E+00
  14.649  0.000E+00  0.000E+00
  14.659  0.000E+00  0.000E+00
  14.669  0.000E+00  0.000E+00
  14.679  0.000E+00  0.000E+00
  14.689  0.000E+00  0.000E+00
  14.699  0.000E+00  0.000E+00
  14.709  0.000E+00  0.000E+00
  14.719  0.000E+00  0.000E+00
  14.729  0.000E+00  0.000E+00
  14.739  0.000E+00  0.000E+00
  14.749  0.000E+00  0.000E+00
  14.759  0.000E+00  0.000E+00
  14.769  0.000E+00  0.000E+00
  14.779  0.000E+00  0.000E+00
  14.789  0.000E+00  0.000E+00
  14.799  0.000E+00  0.000E+00
  14.809  0.000E+00  0.000E+00
  14.819  0.000E+00  0.000E+00
  14.829  0.000E+00  0.000E+00
  14.839  0.000E+00  0.000E+00
  14.849  0.000E+00  0.000E+00
  14.859  0.000E+00  0.000E+00
  14.869  0.000E+00  0.000E+00
  14.879  0.000E+00  0.000E+00
  14.889  0.000E+00  0.000E+00
  14.899  0.000E+00  0.000E+00
  14.909  0.000E+00  0.000E+00
  14.919  0.000E+00  0.000E+00
  14.929  0.000E+00  0.000E+00
  14.939  0.000E+00  0.000E+00
  14.949  0.000E+00  0.000E+00
  14.959  0.000E+00  0.000E+00
  14.969  0.000E+00  0.000E+00
  14.979  0.000E+00  0.000E+00
  14.989  0.000E+00  0.000E+00
  14.999  0.000E+00  0.000E+00
  15.009  0.000E+00  0.000E+00
  15.019  0.000E+00  0.000E+00
  15.029  0.000E+00  0.000E+00
  15.039  0.000E+00  0.000E+00
  15.049  0.000E+00  0.000E+00
  15.059  0.000E+00  0.000E+00
  15.069  0.000E+00  0.000E+00
  15.079  0.000E+00  0.000E+00
  15.089  0.000E+00  0.000E+00
  15.099  0.000E+00  0.000E+00
  15.109  0.000E+00  0.000E+00
  15.119  0.000E+00  0.000E+00
  15.129  0.000E+00  0.000E+00
  15.139  0.000E+00  0.000E+00
  15.149  0.000E+00  0.000E+00
  15.159  0.137E-11  0.127E-11
  15.169  0.287E-11  0.266E-11
  15.179  0.596E-11  0.552E-11
  15.189  0.123E-10  0.114E-10
  15.199  0.249E-10  0.231E-10
  15.209  0.501E-10  0.464E-10
  15.219  0.997E-10  0.924E-10
  15.229  0.196E-09  0.182E-09
  15.239  0.382E-09  0.354E-09
  15.249  0.736E-09  0.682E-09
  15.259  0.140E-08  0.130E-08
  15.269  0.264E-08  0.245E-08
  15.279  0.493E-08  0.457E-08
  15.289  0.910E-08  0.843E-08
  15.299  0.166E-07  0.154E-07
  15.309  0.300E-07  0.278E-07
  15.319  0.535E-07  0.496E-07
  15.329  0.946E-07  0.876E-07
  15.339  0.165E-06  0.153E-06
  15.349  0.286E-06  0.265E-06
  15.359  0.489E-06  0.453E-06
  15.369  0.827E-06  0.766E-06
  15.379  0.138E-05  0.128E-05
  15.389  0.229E-05  0.212E-05
  15.399  0.375E-05  0.348E-05
  15.409  0.608E-05  0.563E-05
  15.419  0.975E-05  0.903E-05
  15.429  0.155E-04  0.143E-04
  15.439  0.243E-04  0.225E-04
  15.449  0.376E-04  0.349E-04
  15.459  0.578E-04  0.535E-04
  15.469  0.878E-04  0.813E-04
  15.479  0.132E-03  0.122E-03
  15.489  0.196E-03  0.181E-03
  15.499  0.288E-03  0.267E-03
  15.509  0.419E-03  0.388E-03
  15.519  0.603E-03  0.558E-03
  15.529  0.858E-03  0.795E-03
  15.539  0.121E-02  0.112E-02
  15.549  0.168E-02  0.156E-02
  15.559  0.232E-02  0.215E-02
  15.569  0.316E-02  0.293E-02
  15.579  0.426E-02  0.395E-02
  15.589  0.569E-02  0.527E-02
  15.599  0.751E-02  0.695E-02
  15.609  0.980E-02  0.908E-02
  15.619  0.127E-01  0.117E-01
  15.629  0.162E-01  0.150E-01
  15.639  0.204E-01  0.189E-01
  15.649  0.256E-01  0.237E-01
  15.659  0.316E-01  0.293E-01
  15.669  0.387E-01  0.358E-01
  15.679  0.468E-01  0.434E-01
  15.689  0.560E-01  0.519E-01
  15.699  0.664E-01  0.615E-01
  15.709  0.778E-01  0.721E-01
  15.719  0.902E-01  0.835E-01
  15.729  0.103E+00  0.958E-01
  15.739  0.117E+00  0.109E+00
  15.749  0.132E+00  0.122E+00
  15.759  0.146E+00  0.135E+00
  15.769  0.161E+00  0.149E+00
  15.779  0.174E+00  0.162E+00
  15.789  0.187E+00  0.174E+00
  15.799  0.199E+00  0.185E+00
  15.809  0.210E+00  0.194E+00
  15.819  0.218E+00  0.202E+00
  15.829  0.225E+00  0.208E+00
  15.839  0.229E+00  0.212E+00
  15.849  0.230E+00  0.213E+00
  15.859  0.230E+00  0.213E+00
  15.869  0.226E+00  0.210E+00
  15.879  0.221E+00  0.204E+00
  15.889  0.213E+00  0.197E+00
  15.899  0.203E+00  0.188E+00
  15.909  0.192E+00  0.178E+00
  15.919  0.179E+00  0.166E+00
  15.929  0.166E+00  0.153E+00
  15.939  0.151E+00  0.140E+00
  15.949  0.137E+00  0.127E+00
  15.959  0.122E+00  0.113E+00
  15.969  0.108E+00  0.100E+00
  15.979  0.948E-01  0.878E-01
  15.989  0.820E-01  0.760E-01
  15.999  0.703E-01  0.651E-01
  16.009  0.596E-01  0.552E-01
  16.019  0.499E-01  0.462E-01
  16.029  0.414E-01  0.384E-01
  16.039  0.340E-01  0.315E-01
  16.049  0.276E-01  0.255E-01
  16.059  0.221E-01  0.205E-01
  16.069  0.176E-01  0.163E-01
  16.079  0.138E-01  0.128E-01
  16.089  0.107E-01  0.994E-02
  16.099  0.825E-02  0.765E-02
  16.109  0.628E-02  0.582E-02
  16.119  0.472E-02  0.438E-02
  16.129  0.352E-02  0.326E-02
  16.139  0.259E-02  0.240E-02
  16.149  0.189E-02  0.175E-02
  16.159  0.136E-02  0.126E-02
  16.169  0.969E-03  0.898E-03
  16.179  0.683E-03  0.633E-03
  16.189  0.477E-03  0.442E-03
  16.199  0.329E-03  0.305E-03
  16.209  0.225E-03  0.208E-03
  16.219  0.152E-03  0.141E-03
  16.229  0.101E-03  0.939E-04
  16.239  0.670E-04  0.621E-04
  16.249  0.438E-04  0.406E-04
  16.259  0.283E-04  0.262E-04
