# E (eV)   ldos(E)   pdos(E)    pdos(E)    pdos(E)   
  -6.307  0.108E-13  0.361E-14  0.361E-14  0.361E-14
  -6.297  0.167E-13  0.558E-14  0.558E-14  0.558E-14
  -6.287  0.256E-13  0.853E-14  0.853E-14  0.853E-14
  -6.277  0.387E-13  0.129E-13  0.129E-13  0.129E-13
  -6.267  0.579E-13  0.193E-13  0.193E-13  0.193E-13
  -6.257  0.858E-13  0.286E-13  0.286E-13  0.286E-13
  -6.247  0.126E-12  0.419E-13  0.419E-13  0.419E-13
  -6.237  0.290E-12  0.967E-13  0.967E-13  0.967E-13
  -6.227  0.488E-12  0.163E-12  0.163E-12  0.163E-12
  -6.217  0.843E-12  0.281E-12  0.281E-12  0.281E-12
  -6.207  0.149E-11  0.498E-12  0.498E-12  0.498E-12
  -6.197  0.271E-11  0.903E-12  0.903E-12  0.903E-12
  -6.187  0.500E-11  0.167E-11  0.167E-11  0.167E-11
  -6.177  0.934E-11  0.311E-11  0.311E-11  0.311E-11
  -6.167  0.176E-10  0.586E-11  0.586E-11  0.586E-11
  -6.157  0.332E-10  0.111E-10  0.111E-10  0.111E-10
  -6.147  0.627E-10  0.209E-10  0.209E-10  0.209E-10
  -6.137  0.118E-09  0.393E-10  0.393E-10  0.393E-10
  -6.127  0.220E-09  0.734E-10  0.734E-10  0.734E-10
  -6.117  0.408E-09  0.136E-09  0.136E-09  0.136E-09
  -6.107  0.752E-09  0.251E-09  0.251E-09  0.251E-09
  -6.097  0.137E-08  0.457E-09  0.457E-09  0.457E-09
  -6.087  0.247E-08  0.825E-09  0.825E-09  0.825E-09
  -6.077  0.442E-08  0.147E-08  0.147E-08  0.147E-08
  -6.067  0.782E-08  0.261E-08  0.261E-08  0.261E-08
  -6.057  0.137E-07  0.457E-08  0.457E-08  0.457E-08
  -6.047  0.237E-07  0.791E-08  0.791E-08  0.791E-08
  -6.037  0.407E-07  0.136E-07  0.136E-07  0.136E-07
  -6.027  0.690E-07  0.230E-07  0.230E-07  0.230E-07
  -6.017  0.116E-06  0.386E-07  0.386E-07  0.386E-07
  -6.007  0.192E-06  0.641E-07  0.641E-07  0.641E-07
  -5.997  0.316E-06  0.105E-06  0.105E-06  0.105E-06
  -5.987  0.513E-06  0.171E-06  0.171E-06  0.171E-06
  -5.977  0.824E-06  0.275E-06  0.275E-06  0.275E-06
  -5.967  0.131E-05  0.437E-06  0.437E-06  0.437E-06
  -5.957  0.206E-05  0.687E-06  0.687E-06  0.687E-06
  -5.947  0.321E-05  0.107E-05  0.107E-05  0.107E-05
  -5.937  0.494E-05  0.165E-05  0.165E-05  0.165E-05
  -5.927  0.753E-05  0.251E-05  0.251E-05  0.251E-05
  -5.917  0.113E-04  0.378E-05  0.378E-05  0.378E-05
  -5.907  0.169E-04  0.564E-05  0.564E-05  0.564E-05
  -5.897  0.249E-04  0.831E-05  0.831E-05  0.831E-05
  -5.887  0.364E-04  0.121E-04  0.121E-04  0.121E-04
  -5.877  0.525E-04  0.175E-04  0.175E-04  0.175E-04
  -5.867  0.750E-04  0.250E-04  0.250E-04  0.250E-04
  -5.857  0.106E-03  0.353E-04  0.353E-04  0.353E-04
  -5.847  0.148E-03  0.494E-04  0.494E-04  0.494E-04
  -5.837  0.205E-03  0.683E-04  0.683E-04  0.683E-04
  -5.827  0.280E-03  0.934E-04  0.934E-04  0.934E-04
  -5.817  0.379E-03  0.126E-03  0.126E-03  0.126E-03
  -5.807  0.508E-03  0.169E-03  0.169E-03  0.169E-03
  -5.797  0.674E-03  0.225E-03  0.225E-03  0.225E-03
  -5.787  0.884E-03  0.295E-03  0.295E-03  0.295E-03
  -5.777  0.115E-02  0.382E-03  0.382E-03  0.382E-03
  -5.767  0.147E-02  0.491E-03  0.491E-03  0.491E-03
  -5.757  0.187E-02  0.624E-03  0.624E-03  0.624E-03
  -5.747  0.236E-02  0.785E-03  0.785E-03  0.785E-03
  -5.737  0.293E-02  0.978E-03  0.978E-03  0.978E-03
  -5.727  0.361E-02  0.120E-02  0.120E-02  0.120E-02
  -5.717  0.441E-02  0.147E-02  0.147E-02  0.147E-02
  -5.707  0.532E-02  0.177E-02  0.177E-02  0.177E-02
  -5.697  0.636E-02  0.212E-02  0.212E-02  0.212E-02
  -5.687  0.753E-02  0.251E-02  0.251E-02  0.251E-02
  -5.677  0.883E-02  0.294E-02  0.294E-02  0.294E-02
  -5.667  0.103E-01  0.342E-02  0.342E-02  0.342E-02
  -5.657  0.118E-01  0.393E-02  0.393E-02  0.393E-02
  -5.647  0.134E-01  0.447E-02  0.447E-02  0.447E-02
  -5.637  0.151E-01  0.505E-02  0.505E-02  0.505E-02
  -5.627  0.169E-01  0.565E-02  0.565E-02  0.565E-02
  -5.617  0.188E-01  0.626E-02  0.626E-02  0.626E-02
  -5.607  0.206E-01  0.687E-02  0.687E-02  0.687E-02
  -5.597  0.225E-01  0.749E-02  0.749E-02  0.749E-02
  -5.587  0.243E-01  0.809E-02  0.809E-02  0.809E-02
  -5.577  0.260E-01  0.867E-02  0.867E-02  0.867E-02
  -5.567  0.276E-01  0.921E-02  0.921E-02  0.921E-02
  -5.557  0.292E-01  0.972E-02  0.972E-02  0.972E-02
  -5.547  0.305E-01  0.102E-01  0.102E-01  0.102E-01
  -5.537  0.317E-01  0.106E-01  0.106E-01  0.106E-01
  -5.527  0.328E-01  0.109E-01  0.109E-01  0.109E-01
  -5.517  0.336E-01  0.112E-01  0.112E-01  0.112E-01
  -5.507  0.342E-01  0.114E-01  0.114E-01  0.114E-01
  -5.497  0.346E-01  0.115E-01  0.115E-01  0.115E-01
  -5.487  0.347E-01  0.116E-01  0.116E-01  0.116E-01
  -5.477  0.347E-01  0.116E-01  0.116E-01  0.116E-01
  -5.467  0.344E-01  0.115E-01  0.115E-01  0.115E-01
  -5.457  0.338E-01  0.113E-01  0.113E-01  0.113E-01
  -5.447  0.331E-01  0.110E-01  0.110E-01  0.110E-01
  -5.437  0.322E-01  0.107E-01  0.107E-01  0.107E-01
  -5.427  0.311E-01  0.104E-01  0.104E-01  0.104E-01
  -5.417  0.298E-01  0.993E-02  0.993E-02  0.993E-02
  -5.407  0.284E-01  0.946E-02  0.946E-02  0.946E-02
  -5.397  0.268E-01  0.894E-02  0.894E-02  0.894E-02
  -5.387  0.251E-01  0.838E-02  0.838E-02  0.838E-02
  -5.377  0.234E-01  0.780E-02  0.780E-02  0.780E-02
  -5.367  0.216E-01  0.720E-02  0.720E-02  0.720E-02
  -5.357  0.198E-01  0.660E-02  0.660E-02  0.660E-02
  -5.347  0.180E-01  0.600E-02  0.600E-02  0.600E-02
  -5.337  0.162E-01  0.540E-02  0.540E-02  0.540E-02
  -5.327  0.145E-01  0.483E-02  0.483E-02  0.483E-02
  -5.317  0.128E-01  0.428E-02  0.428E-02  0.428E-02
  -5.307  0.113E-01  0.376E-02  0.376E-02  0.376E-02
  -5.297  0.986E-02  0.329E-02  0.329E-02  0.329E-02
  -5.287  0.856E-02  0.285E-02  0.285E-02  0.285E-02
  -5.277  0.740E-02  0.247E-02  0.247E-02  0.247E-02
  -5.267  0.640E-02  0.213E-02  0.213E-02  0.213E-02
  -5.257  0.556E-02  0.185E-02  0.185E-02  0.185E-02
  -5.247  0.489E-02  0.163E-02  0.163E-02  0.163E-02
  -5.237  0.440E-02  0.147E-02  0.147E-02  0.147E-02
  -5.227  0.410E-02  0.137E-02  0.137E-02  0.137E-02
  -5.217  0.399E-02  0.133E-02  0.133E-02  0.133E-02
  -5.207  0.408E-02  0.136E-02  0.136E-02  0.136E-02
  -5.197  0.439E-02  0.146E-02  0.146E-02  0.146E-02
  -5.187  0.493E-02  0.164E-02  0.164E-02  0.164E-02
  -5.177  0.571E-02  0.190E-02  0.190E-02  0.190E-02
  -5.167  0.675E-02  0.225E-02  0.225E-02  0.225E-02
  -5.157  0.807E-02  0.269E-02  0.269E-02  0.269E-02
  -5.147  0.966E-02  0.322E-02  0.322E-02  0.322E-02
  -5.137  0.116E-01  0.385E-02  0.385E-02  0.385E-02
  -5.127  0.137E-01  0.458E-02  0.458E-02  0.458E-02
  -5.117  0.162E-01  0.541E-02  0.541E-02  0.541E-02
  -5.107  0.190E-01  0.633E-02  0.633E-02  0.633E-02
  -5.097  0.220E-01  0.734E-02  0.734E-02  0.734E-02
  -5.087  0.253E-01  0.843E-02  0.843E-02  0.843E-02
  -5.077  0.287E-01  0.957E-02  0.957E-02  0.957E-02
  -5.067  0.323E-01  0.108E-01  0.108E-01  0.108E-01
  -5.057  0.359E-01  0.120E-01  0.120E-01  0.120E-01
  -5.047  0.395E-01  0.132E-01  0.132E-01  0.132E-01
  -5.037  0.430E-01  0.143E-01  0.143E-01  0.143E-01
  -5.027  0.464E-01  0.155E-01  0.155E-01  0.155E-01
  -5.017  0.494E-01  0.165E-01  0.165E-01  0.165E-01
  -5.007  0.521E-01  0.174E-01  0.174E-01  0.174E-01
  -4.997  0.543E-01  0.181E-01  0.181E-01  0.181E-01
  -4.987  0.561E-01  0.187E-01  0.187E-01  0.187E-01
  -4.977  0.573E-01  0.191E-01  0.191E-01  0.191E-01
  -4.967  0.579E-01  0.193E-01  0.193E-01  0.193E-01
  -4.957  0.579E-01  0.193E-01  0.193E-01  0.193E-01
  -4.947  0.573E-01  0.191E-01  0.191E-01  0.191E-01
  -4.937  0.562E-01  0.187E-01  0.187E-01  0.187E-01
  -4.927  0.546E-01  0.182E-01  0.182E-01  0.182E-01
  -4.917  0.525E-01  0.175E-01  0.175E-01  0.175E-01
  -4.907  0.502E-01  0.167E-01  0.167E-01  0.167E-01
  -4.897  0.476E-01  0.159E-01  0.159E-01  0.159E-01
  -4.887  0.450E-01  0.150E-01  0.150E-01  0.150E-01
  -4.877  0.423E-01  0.141E-01  0.141E-01  0.141E-01
  -4.867  0.399E-01  0.133E-01  0.133E-01  0.133E-01
  -4.857  0.377E-01  0.126E-01  0.126E-01  0.126E-01
  -4.847  0.360E-01  0.120E-01  0.120E-01  0.120E-01
  -4.837  0.349E-01  0.116E-01  0.116E-01  0.116E-01
  -4.827  0.344E-01  0.115E-01  0.115E-01  0.115E-01
  -4.817  0.347E-01  0.116E-01  0.116E-01  0.116E-01
  -4.807  0.359E-01  0.120E-01  0.120E-01  0.120E-01
  -4.797  0.380E-01  0.127E-01  0.127E-01  0.127E-01
  -4.787  0.411E-01  0.137E-01  0.137E-01  0.137E-01
  -4.777  0.452E-01  0.151E-01  0.151E-01  0.151E-01
  -4.767  0.503E-01  0.168E-01  0.168E-01  0.168E-01
  -4.757  0.564E-01  0.188E-01  0.188E-01  0.188E-01
  -4.747  0.634E-01  0.211E-01  0.211E-01  0.211E-01
  -4.737  0.713E-01  0.238E-01  0.238E-01  0.238E-01
  -4.727  0.798E-01  0.266E-01  0.266E-01  0.266E-01
  -4.717  0.889E-01  0.296E-01  0.296E-01  0.296E-01
  -4.707  0.983E-01  0.328E-01  0.328E-01  0.328E-01
  -4.697  0.108E+00  0.360E-01  0.360E-01  0.360E-01
  -4.687  0.118E+00  0.392E-01  0.392E-01  0.392E-01
  -4.677  0.127E+00  0.423E-01  0.423E-01  0.423E-01
  -4.667  0.135E+00  0.452E-01  0.452E-01  0.452E-01
  -4.657  0.143E+00  0.478E-01  0.478E-01  0.478E-01
  -4.647  0.150E+00  0.501E-01  0.501E-01  0.501E-01
  -4.637  0.156E+00  0.521E-01  0.521E-01  0.521E-01
  -4.627  0.161E+00  0.536E-01  0.536E-01  0.536E-01
  -4.617  0.164E+00  0.545E-01  0.545E-01  0.545E-01
  -4.607  0.165E+00  0.550E-01  0.550E-01  0.550E-01
  -4.597  0.165E+00  0.550E-01  0.550E-01  0.550E-01
  -4.587  0.163E+00  0.544E-01  0.544E-01  0.544E-01
  -4.577  0.160E+00  0.533E-01  0.533E-01  0.533E-01
  -4.567  0.155E+00  0.517E-01  0.517E-01  0.517E-01
  -4.557  0.149E+00  0.497E-01  0.497E-01  0.497E-01
  -4.547  0.142E+00  0.474E-01  0.474E-01  0.474E-01
  -4.537  0.134E+00  0.447E-01  0.447E-01  0.447E-01
  -4.527  0.125E+00  0.418E-01  0.418E-01  0.418E-01
  -4.517  0.116E+00  0.387E-01  0.387E-01  0.387E-01
  -4.507  0.106E+00  0.355E-01  0.355E-01  0.355E-01
  -4.497  0.967E-01  0.322E-01  0.322E-01  0.322E-01
  -4.487  0.871E-01  0.290E-01  0.290E-01  0.290E-01
  -4.477  0.777E-01  0.259E-01  0.259E-01  0.259E-01
  -4.467  0.687E-01  0.229E-01  0.229E-01  0.229E-01
  -4.457  0.602E-01  0.201E-01  0.201E-01  0.201E-01
  -4.447  0.523E-01  0.174E-01  0.174E-01  0.174E-01
  -4.437  0.450E-01  0.150E-01  0.150E-01  0.150E-01
  -4.427  0.384E-01  0.128E-01  0.128E-01  0.128E-01
  -4.417  0.324E-01  0.108E-01  0.108E-01  0.108E-01
  -4.407  0.271E-01  0.905E-02  0.905E-02  0.905E-02
  -4.397  0.225E-01  0.751E-02  0.751E-02  0.751E-02
  -4.387  0.185E-01  0.618E-02  0.618E-02  0.618E-02
  -4.377  0.151E-01  0.504E-02  0.504E-02  0.504E-02
  -4.367  0.122E-01  0.408E-02  0.408E-02  0.408E-02
  -4.357  0.982E-02  0.327E-02  0.327E-02  0.327E-02
  -4.347  0.784E-02  0.261E-02  0.261E-02  0.261E-02
  -4.337  0.624E-02  0.208E-02  0.208E-02  0.208E-02
  -4.327  0.497E-02  0.166E-02  0.166E-02  0.166E-02
  -4.317  0.399E-02  0.133E-02  0.133E-02  0.133E-02
  -4.307  0.327E-02  0.109E-02  0.109E-02  0.109E-02
  -4.297  0.277E-02  0.924E-03  0.924E-03  0.924E-03
  -4.287  0.248E-02  0.826E-03  0.826E-03  0.826E-03
  -4.277  0.237E-02  0.790E-03  0.790E-03  0.790E-03
  -4.267  0.244E-02  0.813E-03  0.813E-03  0.813E-03
  -4.257  0.268E-02  0.892E-03  0.892E-03  0.892E-03
  -4.247  0.308E-02  0.103E-02  0.103E-02  0.103E-02
  -4.237  0.367E-02  0.122E-02  0.122E-02  0.122E-02
  -4.227  0.443E-02  0.148E-02  0.148E-02  0.148E-02
  -4.217  0.538E-02  0.179E-02  0.179E-02  0.179E-02
  -4.207  0.653E-02  0.218E-02  0.218E-02  0.218E-02
  -4.197  0.789E-02  0.263E-02  0.263E-02  0.263E-02
  -4.187  0.946E-02  0.315E-02  0.315E-02  0.315E-02
  -4.177  0.112E-01  0.375E-02  0.375E-02  0.375E-02
  -4.167  0.132E-01  0.442E-02  0.442E-02  0.442E-02
  -4.157  0.155E-01  0.515E-02  0.515E-02  0.515E-02
  -4.147  0.179E-01  0.596E-02  0.596E-02  0.596E-02
  -4.137  0.205E-01  0.682E-02  0.682E-02  0.682E-02
  -4.127  0.232E-01  0.774E-02  0.774E-02  0.774E-02
  -4.117  0.261E-01  0.871E-02  0.871E-02  0.871E-02
  -4.107  0.291E-01  0.971E-02  0.971E-02  0.971E-02
  -4.097  0.322E-01  0.107E-01  0.107E-01  0.107E-01
  -4.087  0.354E-01  0.118E-01  0.118E-01  0.118E-01
  -4.077  0.386E-01  0.129E-01  0.129E-01  0.129E-01
  -4.067  0.418E-01  0.139E-01  0.139E-01  0.139E-01
  -4.057  0.451E-01  0.150E-01  0.150E-01  0.150E-01
  -4.047  0.484E-01  0.161E-01  0.161E-01  0.161E-01
  -4.037  0.517E-01  0.172E-01  0.172E-01  0.172E-01
  -4.027  0.552E-01  0.184E-01  0.184E-01  0.184E-01
  -4.017  0.587E-01  0.196E-01  0.196E-01  0.196E-01
  -4.007  0.625E-01  0.208E-01  0.208E-01  0.208E-01
  -3.997  0.665E-01  0.222E-01  0.222E-01  0.222E-01
  -3.987  0.708E-01  0.236E-01  0.236E-01  0.236E-01
  -3.977  0.755E-01  0.252E-01  0.252E-01  0.252E-01
  -3.967  0.805E-01  0.268E-01  0.268E-01  0.268E-01
  -3.957  0.859E-01  0.286E-01  0.286E-01  0.286E-01
  -3.947  0.918E-01  0.306E-01  0.306E-01  0.306E-01
  -3.937  0.981E-01  0.327E-01  0.327E-01  0.327E-01
  -3.927  0.105E+00  0.349E-01  0.349E-01  0.349E-01
  -3.917  0.112E+00  0.372E-01  0.372E-01  0.372E-01
  -3.907  0.119E+00  0.396E-01  0.396E-01  0.396E-01
  -3.897  0.126E+00  0.420E-01  0.420E-01  0.420E-01
  -3.887  0.133E+00  0.444E-01  0.444E-01  0.444E-01
  -3.877  0.140E+00  0.467E-01  0.467E-01  0.467E-01
  -3.867  0.147E+00  0.490E-01  0.490E-01  0.490E-01
  -3.857  0.153E+00  0.512E-01  0.512E-01  0.512E-01
  -3.847  0.159E+00  0.532E-01  0.532E-01  0.532E-01
  -3.837  0.165E+00  0.550E-01  0.550E-01  0.550E-01
  -3.827  0.170E+00  0.566E-01  0.566E-01  0.566E-01
  -3.817  0.174E+00  0.581E-01  0.581E-01  0.581E-01
  -3.807  0.178E+00  0.594E-01  0.594E-01  0.594E-01
  -3.797  0.182E+00  0.606E-01  0.606E-01  0.606E-01
  -3.787  0.185E+00  0.616E-01  0.616E-01  0.616E-01
  -3.777  0.188E+00  0.626E-01  0.626E-01  0.626E-01
  -3.767  0.190E+00  0.635E-01  0.635E-01  0.635E-01
  -3.757  0.193E+00  0.643E-01  0.643E-01  0.643E-01
  -3.747  0.195E+00  0.651E-01  0.651E-01  0.651E-01
  -3.737  0.198E+00  0.660E-01  0.660E-01  0.660E-01
  -3.727  0.200E+00  0.668E-01  0.668E-01  0.668E-01
  -3.717  0.203E+00  0.676E-01  0.676E-01  0.676E-01
  -3.707  0.205E+00  0.684E-01  0.684E-01  0.684E-01
  -3.697  0.207E+00  0.691E-01  0.691E-01  0.691E-01
  -3.687  0.209E+00  0.698E-01  0.698E-01  0.698E-01
  -3.677  0.211E+00  0.703E-01  0.703E-01  0.703E-01
  -3.667  0.212E+00  0.707E-01  0.707E-01  0.707E-01
  -3.657  0.213E+00  0.709E-01  0.709E-01  0.709E-01
  -3.647  0.213E+00  0.709E-01  0.709E-01  0.709E-01
  -3.637  0.212E+00  0.707E-01  0.707E-01  0.707E-01
  -3.627  0.211E+00  0.703E-01  0.703E-01  0.703E-01
  -3.617  0.209E+00  0.696E-01  0.696E-01  0.696E-01
  -3.607  0.207E+00  0.688E-01  0.688E-01  0.688E-01
  -3.597  0.204E+00  0.679E-01  0.679E-01  0.679E-01
  -3.587  0.201E+00  0.669E-01  0.669E-01  0.669E-01
  -3.577  0.197E+00  0.658E-01  0.658E-01  0.658E-01
  -3.567  0.194E+00  0.646E-01  0.646E-01  0.646E-01
  -3.557  0.190E+00  0.635E-01  0.635E-01  0.635E-01
  -3.547  0.187E+00  0.624E-01  0.624E-01  0.624E-01
  -3.537  0.184E+00  0.614E-01  0.614E-01  0.614E-01
  -3.527  0.181E+00  0.604E-01  0.604E-01  0.604E-01
  -3.517  0.178E+00  0.595E-01  0.595E-01  0.595E-01
  -3.507  0.176E+00  0.586E-01  0.586E-01  0.586E-01
  -3.497  0.173E+00  0.577E-01  0.577E-01  0.577E-01
  -3.487  0.170E+00  0.568E-01  0.568E-01  0.568E-01
  -3.477  0.167E+00  0.558E-01  0.558E-01  0.558E-01
  -3.467  0.164E+00  0.546E-01  0.546E-01  0.546E-01
  -3.457  0.160E+00  0.534E-01  0.534E-01  0.534E-01
  -3.447  0.156E+00  0.519E-01  0.519E-01  0.519E-01
  -3.437  0.151E+00  0.502E-01  0.502E-01  0.502E-01
  -3.427  0.145E+00  0.483E-01  0.483E-01  0.483E-01
  -3.417  0.139E+00  0.462E-01  0.462E-01  0.462E-01
  -3.407  0.131E+00  0.438E-01  0.438E-01  0.438E-01
  -3.397  0.124E+00  0.412E-01  0.412E-01  0.412E-01
  -3.387  0.115E+00  0.385E-01  0.385E-01  0.385E-01
  -3.377  0.107E+00  0.356E-01  0.356E-01  0.356E-01
  -3.367  0.979E-01  0.326E-01  0.326E-01  0.326E-01
  -3.357  0.890E-01  0.297E-01  0.297E-01  0.297E-01
  -3.347  0.800E-01  0.267E-01  0.267E-01  0.267E-01
  -3.337  0.713E-01  0.238E-01  0.238E-01  0.238E-01
  -3.327  0.629E-01  0.210E-01  0.210E-01  0.210E-01
  -3.317  0.549E-01  0.183E-01  0.183E-01  0.183E-01
  -3.307  0.474E-01  0.158E-01  0.158E-01  0.158E-01
  -3.297  0.406E-01  0.135E-01  0.135E-01  0.135E-01
  -3.287  0.343E-01  0.114E-01  0.114E-01  0.114E-01
  -3.277  0.288E-01  0.959E-02  0.959E-02  0.959E-02
  -3.267  0.239E-01  0.795E-02  0.795E-02  0.795E-02
  -3.257  0.196E-01  0.653E-02  0.653E-02  0.653E-02
  -3.247  0.159E-01  0.531E-02  0.531E-02  0.531E-02
  -3.237  0.129E-01  0.429E-02  0.429E-02  0.429E-02
  -3.227  0.103E-01  0.344E-02  0.344E-02  0.344E-02
  -3.217  0.825E-02  0.275E-02  0.275E-02  0.275E-02
  -3.207  0.663E-02  0.221E-02  0.221E-02  0.221E-02
  -3.197  0.540E-02  0.180E-02  0.180E-02  0.180E-02
  -3.187  0.453E-02  0.151E-02  0.151E-02  0.151E-02
  -3.177  0.400E-02  0.133E-02  0.133E-02  0.133E-02
  -3.167  0.379E-02  0.126E-02  0.126E-02  0.126E-02
  -3.157  0.390E-02  0.130E-02  0.130E-02  0.130E-02
  -3.147  0.434E-02  0.145E-02  0.145E-02  0.145E-02
  -3.137  0.512E-02  0.171E-02  0.171E-02  0.171E-02
  -3.127  0.629E-02  0.210E-02  0.210E-02  0.210E-02
  -3.117  0.787E-02  0.262E-02  0.262E-02  0.262E-02
  -3.107  0.993E-02  0.331E-02  0.331E-02  0.331E-02
  -3.097  0.125E-01  0.417E-02  0.417E-02  0.417E-02
  -3.087  0.157E-01  0.524E-02  0.524E-02  0.524E-02
  -3.077  0.196E-01  0.652E-02  0.652E-02  0.652E-02
  -3.067  0.242E-01  0.805E-02  0.805E-02  0.805E-02
  -3.057  0.295E-01  0.984E-02  0.984E-02  0.984E-02
  -3.047  0.357E-01  0.119E-01  0.119E-01  0.119E-01
  -3.037  0.428E-01  0.143E-01  0.143E-01  0.143E-01
  -3.027  0.507E-01  0.169E-01  0.169E-01  0.169E-01
  -3.017  0.594E-01  0.198E-01  0.198E-01  0.198E-01
  -3.007  0.690E-01  0.230E-01  0.230E-01  0.230E-01
  -2.997  0.792E-01  0.264E-01  0.264E-01  0.264E-01
  -2.987  0.901E-01  0.300E-01  0.300E-01  0.300E-01
  -2.977  0.101E+00  0.338E-01  0.338E-01  0.338E-01
  -2.967  0.113E+00  0.377E-01  0.377E-01  0.377E-01
  -2.957  0.125E+00  0.415E-01  0.415E-01  0.415E-01
  -2.947  0.136E+00  0.454E-01  0.454E-01  0.454E-01
  -2.937  0.147E+00  0.491E-01  0.491E-01  0.491E-01
  -2.927  0.158E+00  0.527E-01  0.527E-01  0.527E-01
  -2.917  0.168E+00  0.561E-01  0.561E-01  0.561E-01
  -2.907  0.177E+00  0.591E-01  0.591E-01  0.591E-01
  -2.897  0.186E+00  0.619E-01  0.619E-01  0.619E-01
  -2.887  0.193E+00  0.643E-01  0.643E-01  0.643E-01
  -2.877  0.199E+00  0.664E-01  0.664E-01  0.664E-01
  -2.867  0.205E+00  0.682E-01  0.682E-01  0.682E-01
  -2.857  0.209E+00  0.697E-01  0.697E-01  0.697E-01
  -2.847  0.213E+00  0.710E-01  0.710E-01  0.710E-01
  -2.837  0.216E+00  0.721E-01  0.721E-01  0.721E-01
  -2.827  0.219E+00  0.731E-01  0.731E-01  0.731E-01
  -2.817  0.222E+00  0.740E-01  0.740E-01  0.740E-01
  -2.807  0.225E+00  0.749E-01  0.749E-01  0.749E-01
  -2.797  0.227E+00  0.758E-01  0.758E-01  0.758E-01
  -2.787  0.230E+00  0.768E-01  0.768E-01  0.768E-01
  -2.777  0.233E+00  0.778E-01  0.778E-01  0.778E-01
  -2.767  0.237E+00  0.789E-01  0.789E-01  0.789E-01
  -2.757  0.240E+00  0.801E-01  0.801E-01  0.801E-01
  -2.747  0.244E+00  0.812E-01  0.812E-01  0.812E-01
  -2.737  0.247E+00  0.822E-01  0.822E-01  0.822E-01
  -2.727  0.249E+00  0.831E-01  0.831E-01  0.831E-01
  -2.717  0.251E+00  0.837E-01  0.837E-01  0.837E-01
  -2.707  0.252E+00  0.839E-01  0.839E-01  0.839E-01
  -2.697  0.251E+00  0.838E-01  0.838E-01  0.838E-01
  -2.687  0.249E+00  0.831E-01  0.831E-01  0.831E-01
  -2.677  0.246E+00  0.820E-01  0.820E-01  0.820E-01
  -2.667  0.241E+00  0.802E-01  0.802E-01  0.802E-01
  -2.657  0.234E+00  0.779E-01  0.779E-01  0.779E-01
  -2.647  0.225E+00  0.751E-01  0.751E-01  0.751E-01
  -2.637  0.215E+00  0.717E-01  0.717E-01  0.717E-01
  -2.627  0.203E+00  0.678E-01  0.678E-01  0.678E-01
  -2.617  0.191E+00  0.635E-01  0.635E-01  0.635E-01
  -2.607  0.177E+00  0.590E-01  0.590E-01  0.590E-01
  -2.597  0.163E+00  0.542E-01  0.542E-01  0.542E-01
  -2.587  0.148E+00  0.493E-01  0.493E-01  0.493E-01
  -2.577  0.133E+00  0.444E-01  0.444E-01  0.444E-01
  -2.567  0.119E+00  0.396E-01  0.396E-01  0.396E-01
  -2.557  0.105E+00  0.349E-01  0.349E-01  0.349E-01
  -2.547  0.915E-01  0.305E-01  0.305E-01  0.305E-01
  -2.537  0.790E-01  0.263E-01  0.263E-01  0.263E-01
  -2.527  0.676E-01  0.225E-01  0.225E-01  0.225E-01
  -2.517  0.571E-01  0.190E-01  0.190E-01  0.190E-01
  -2.507  0.478E-01  0.159E-01  0.159E-01  0.159E-01
  -2.497  0.396E-01  0.132E-01  0.132E-01  0.132E-01
  -2.487  0.324E-01  0.108E-01  0.108E-01  0.108E-01
  -2.477  0.263E-01  0.876E-02  0.876E-02  0.876E-02
  -2.467  0.211E-01  0.702E-02  0.702E-02  0.702E-02
  -2.457  0.167E-01  0.557E-02  0.557E-02  0.557E-02
  -2.447  0.131E-01  0.437E-02  0.437E-02  0.437E-02
  -2.437  0.102E-01  0.339E-02  0.339E-02  0.339E-02
  -2.427  0.782E-02  0.261E-02  0.261E-02  0.261E-02
  -2.417  0.594E-02  0.198E-02  0.198E-02  0.198E-02
  -2.407  0.447E-02  0.149E-02  0.149E-02  0.149E-02
  -2.397  0.332E-02  0.111E-02  0.111E-02  0.111E-02
  -2.387  0.244E-02  0.814E-03  0.814E-03  0.814E-03
  -2.377  0.178E-02  0.593E-03  0.593E-03  0.593E-03
  -2.367  0.128E-02  0.427E-03  0.427E-03  0.427E-03
  -2.357  0.912E-03  0.304E-03  0.304E-03  0.304E-03
  -2.347  0.643E-03  0.214E-03  0.214E-03  0.214E-03
  -2.337  0.448E-03  0.149E-03  0.149E-03  0.149E-03
  -2.327  0.309E-03  0.103E-03  0.103E-03  0.103E-03
  -2.317  0.211E-03  0.703E-04  0.703E-04  0.703E-04
  -2.307  0.142E-03  0.474E-04  0.474E-04  0.474E-04
  -2.297  0.951E-04  0.317E-04  0.317E-04  0.317E-04
  -2.287  0.630E-04  0.210E-04  0.210E-04  0.210E-04
  -2.277  0.415E-04  0.138E-04  0.138E-04  0.138E-04
  -2.267  0.273E-04  0.909E-05  0.909E-05  0.909E-05
  -2.257  0.182E-04  0.608E-05  0.608E-05  0.608E-05
  -2.247  0.128E-04  0.426E-05  0.426E-05  0.426E-05
  -2.237  0.100E-04  0.333E-05  0.333E-05  0.333E-05
  -2.227  0.933E-05  0.311E-05  0.311E-05  0.311E-05
  -2.217  0.106E-04  0.353E-05  0.353E-05  0.353E-05
  -2.207  0.139E-04  0.464E-05  0.464E-05  0.464E-05
  -2.197  0.198E-04  0.659E-05  0.659E-05  0.659E-05
  -2.187  0.289E-04  0.964E-05  0.964E-05  0.964E-05
  -2.177  0.426E-04  0.142E-04  0.142E-04  0.142E-04
  -2.167  0.625E-04  0.208E-04  0.208E-04  0.208E-04
  -2.157  0.909E-04  0.303E-04  0.303E-04  0.303E-04
  -2.147  0.131E-03  0.437E-04  0.437E-04  0.437E-04
  -2.137  0.187E-03  0.624E-04  0.624E-04  0.624E-04
  -2.127  0.265E-03  0.883E-04  0.883E-04  0.883E-04
  -2.117  0.370E-03  0.123E-03  0.123E-03  0.123E-03
  -2.107  0.513E-03  0.171E-03  0.171E-03  0.171E-03
  -2.097  0.704E-03  0.235E-03  0.235E-03  0.235E-03
  -2.087  0.955E-03  0.318E-03  0.318E-03  0.318E-03
  -2.077  0.128E-02  0.428E-03  0.428E-03  0.428E-03
  -2.067  0.171E-02  0.569E-03  0.569E-03  0.569E-03
  -2.057  0.225E-02  0.750E-03  0.750E-03  0.750E-03
  -2.047  0.294E-02  0.979E-03  0.979E-03  0.979E-03
  -2.037  0.380E-02  0.127E-02  0.127E-02  0.127E-02
  -2.027  0.486E-02  0.162E-02  0.162E-02  0.162E-02
  -2.017  0.617E-02  0.206E-02  0.206E-02  0.206E-02
  -2.007  0.775E-02  0.258E-02  0.258E-02  0.258E-02
  -1.997  0.966E-02  0.322E-02  0.322E-02  0.322E-02
  -1.987  0.119E-01  0.398E-02  0.398E-02  0.398E-02
  -1.977  0.146E-01  0.487E-02  0.487E-02  0.487E-02
  -1.967  0.178E-01  0.592E-02  0.592E-02  0.592E-02
  -1.957  0.214E-01  0.713E-02  0.713E-02  0.713E-02
  -1.947  0.256E-01  0.852E-02  0.852E-02  0.852E-02
  -1.937  0.303E-01  0.101E-01  0.101E-01  0.101E-01
  -1.927  0.357E-01  0.119E-01  0.119E-01  0.119E-01
  -1.917  0.417E-01  0.139E-01  0.139E-01  0.139E-01
  -1.907  0.483E-01  0.161E-01  0.161E-01  0.161E-01
  -1.897  0.557E-01  0.186E-01  0.186E-01  0.186E-01
  -1.887  0.636E-01  0.212E-01  0.212E-01  0.212E-01
  -1.877  0.723E-01  0.241E-01  0.241E-01  0.241E-01
  -1.867  0.815E-01  0.272E-01  0.272E-01  0.272E-01
  -1.857  0.913E-01  0.304E-01  0.304E-01  0.304E-01
  -1.847  0.102E+00  0.339E-01  0.339E-01  0.339E-01
  -1.837  0.112E+00  0.374E-01  0.374E-01  0.374E-01
  -1.827  0.123E+00  0.411E-01  0.411E-01  0.411E-01
  -1.817  0.134E+00  0.448E-01  0.448E-01  0.448E-01
  -1.807  0.145E+00  0.485E-01  0.485E-01  0.485E-01
  -1.797  0.156E+00  0.521E-01  0.521E-01  0.521E-01
  -1.787  0.167E+00  0.556E-01  0.556E-01  0.556E-01
  -1.777  0.177E+00  0.588E-01  0.588E-01  0.588E-01
  -1.767  0.185E+00  0.618E-01  0.618E-01  0.618E-01
  -1.757  0.193E+00  0.644E-01  0.644E-01  0.644E-01
  -1.747  0.200E+00  0.666E-01  0.666E-01  0.666E-01
  -1.737  0.205E+00  0.683E-01  0.683E-01  0.683E-01
  -1.727  0.208E+00  0.694E-01  0.694E-01  0.694E-01
  -1.717  0.210E+00  0.699E-01  0.699E-01  0.699E-01
  -1.707  0.210E+00  0.699E-01  0.699E-01  0.699E-01
  -1.697  0.207E+00  0.692E-01  0.692E-01  0.692E-01
  -1.687  0.203E+00  0.678E-01  0.678E-01  0.678E-01
  -1.677  0.198E+00  0.659E-01  0.659E-01  0.659E-01
  -1.667  0.190E+00  0.634E-01  0.634E-01  0.634E-01
  -1.657  0.181E+00  0.605E-01  0.605E-01  0.605E-01
  -1.647  0.171E+00  0.571E-01  0.571E-01  0.571E-01
  -1.637  0.160E+00  0.533E-01  0.533E-01  0.533E-01
  -1.627  0.148E+00  0.494E-01  0.494E-01  0.494E-01
  -1.617  0.136E+00  0.452E-01  0.452E-01  0.452E-01
  -1.607  0.123E+00  0.410E-01  0.410E-01  0.410E-01
  -1.597  0.110E+00  0.368E-01  0.368E-01  0.368E-01
  -1.587  0.981E-01  0.327E-01  0.327E-01  0.327E-01
  -1.577  0.863E-01  0.288E-01  0.288E-01  0.288E-01
  -1.567  0.751E-01  0.250E-01  0.250E-01  0.250E-01
  -1.557  0.647E-01  0.216E-01  0.216E-01  0.216E-01
  -1.547  0.551E-01  0.184E-01  0.184E-01  0.184E-01
  -1.537  0.465E-01  0.155E-01  0.155E-01  0.155E-01
  -1.527  0.388E-01  0.129E-01  0.129E-01  0.129E-01
  -1.517  0.320E-01  0.107E-01  0.107E-01  0.107E-01
  -1.507  0.262E-01  0.873E-02  0.873E-02  0.873E-02
  -1.497  0.212E-01  0.705E-02  0.705E-02  0.705E-02
  -1.487  0.169E-01  0.564E-02  0.564E-02  0.564E-02
  -1.477  0.134E-01  0.446E-02  0.446E-02  0.446E-02
  -1.467  0.105E-01  0.350E-02  0.350E-02  0.350E-02
  -1.457  0.812E-02  0.271E-02  0.271E-02  0.271E-02
  -1.447  0.623E-02  0.208E-02  0.208E-02  0.208E-02
  -1.437  0.472E-02  0.157E-02  0.157E-02  0.157E-02
  -1.427  0.354E-02  0.118E-02  0.118E-02  0.118E-02
  -1.417  0.263E-02  0.876E-03  0.876E-03  0.876E-03
  -1.407  0.193E-02  0.644E-03  0.644E-03  0.644E-03
  -1.397  0.140E-02  0.468E-03  0.468E-03  0.468E-03
  -1.387  0.101E-02  0.337E-03  0.337E-03  0.337E-03
  -1.377  0.723E-03  0.241E-03  0.241E-03  0.241E-03
  -1.367  0.515E-03  0.172E-03  0.172E-03  0.172E-03
  -1.357  0.368E-03  0.123E-03  0.123E-03  0.123E-03
  -1.347  0.269E-03  0.896E-04  0.896E-04  0.896E-04
  -1.337  0.206E-03  0.686E-04  0.686E-04  0.686E-04
  -1.327  0.172E-03  0.574E-04  0.574E-04  0.574E-04
  -1.317  0.164E-03  0.547E-04  0.547E-04  0.547E-04
  -1.307  0.180E-03  0.600E-04  0.600E-04  0.600E-04
  -1.297  0.220E-03  0.734E-04  0.734E-04  0.734E-04
  -1.287  0.288E-03  0.962E-04  0.962E-04  0.962E-04
  -1.277  0.390E-03  0.130E-03  0.130E-03  0.130E-03
  -1.267  0.533E-03  0.178E-03  0.178E-03  0.178E-03
  -1.257  0.729E-03  0.243E-03  0.243E-03  0.243E-03
  -1.247  0.990E-03  0.330E-03  0.330E-03  0.330E-03
  -1.237  0.134E-02  0.445E-03  0.445E-03  0.445E-03
  -1.227  0.179E-02  0.595E-03  0.595E-03  0.595E-03
  -1.217  0.237E-02  0.788E-03  0.788E-03  0.788E-03
  -1.207  0.310E-02  0.103E-02  0.103E-02  0.103E-02
  -1.197  0.404E-02  0.135E-02  0.135E-02  0.135E-02
  -1.187  0.520E-02  0.173E-02  0.173E-02  0.173E-02
  -1.177  0.664E-02  0.221E-02  0.221E-02  0.221E-02
  -1.167  0.840E-02  0.280E-02  0.280E-02  0.280E-02
  -1.157  0.105E-01  0.351E-02  0.351E-02  0.351E-02
  -1.147  0.131E-01  0.437E-02  0.437E-02  0.437E-02
  -1.137  0.162E-01  0.539E-02  0.539E-02  0.539E-02
  -1.127  0.198E-01  0.660E-02  0.660E-02  0.660E-02
  -1.117  0.240E-01  0.801E-02  0.801E-02  0.801E-02
  -1.107  0.290E-01  0.966E-02  0.966E-02  0.966E-02
  -1.097  0.347E-01  0.116E-01  0.116E-01  0.116E-01
  -1.087  0.412E-01  0.137E-01  0.137E-01  0.137E-01
  -1.077  0.486E-01  0.162E-01  0.162E-01  0.162E-01
  -1.067  0.569E-01  0.190E-01  0.190E-01  0.190E-01
  -1.057  0.663E-01  0.221E-01  0.221E-01  0.221E-01
  -1.047  0.767E-01  0.256E-01  0.256E-01  0.256E-01
  -1.037  0.882E-01  0.294E-01  0.294E-01  0.294E-01
  -1.027  0.101E+00  0.336E-01  0.336E-01  0.336E-01
  -1.017  0.115E+00  0.382E-01  0.382E-01  0.382E-01
  -1.007  0.129E+00  0.431E-01  0.431E-01  0.431E-01
  -0.997  0.145E+00  0.484E-01  0.484E-01  0.484E-01
  -0.987  0.162E+00  0.540E-01  0.540E-01  0.540E-01
  -0.977  0.179E+00  0.598E-01  0.598E-01  0.598E-01
  -0.967  0.198E+00  0.659E-01  0.659E-01  0.659E-01
  -0.957  0.217E+00  0.722E-01  0.722E-01  0.722E-01
  -0.947  0.236E+00  0.785E-01  0.785E-01  0.785E-01
  -0.937  0.255E+00  0.849E-01  0.849E-01  0.849E-01
  -0.927  0.273E+00  0.911E-01  0.911E-01  0.911E-01
  -0.917  0.292E+00  0.972E-01  0.972E-01  0.972E-01
  -0.907  0.309E+00  0.103E+00  0.103E+00  0.103E+00
  -0.897  0.325E+00  0.108E+00  0.108E+00  0.108E+00
  -0.887  0.340E+00  0.113E+00  0.113E+00  0.113E+00
  -0.877  0.354E+00  0.118E+00  0.118E+00  0.118E+00
  -0.867  0.365E+00  0.122E+00  0.122E+00  0.122E+00
  -0.857  0.375E+00  0.125E+00  0.125E+00  0.125E+00
  -0.847  0.383E+00  0.128E+00  0.128E+00  0.128E+00
  -0.837  0.389E+00  0.130E+00  0.130E+00  0.130E+00
  -0.827  0.393E+00  0.131E+00  0.131E+00  0.131E+00
  -0.817  0.396E+00  0.132E+00  0.132E+00  0.132E+00
  -0.807  0.398E+00  0.133E+00  0.133E+00  0.133E+00
  -0.797  0.399E+00  0.133E+00  0.133E+00  0.133E+00
  -0.787  0.400E+00  0.133E+00  0.133E+00  0.133E+00
  -0.777  0.402E+00  0.134E+00  0.134E+00  0.134E+00
  -0.767  0.404E+00  0.135E+00  0.135E+00  0.135E+00
  -0.757  0.407E+00  0.136E+00  0.136E+00  0.136E+00
  -0.747  0.411E+00  0.137E+00  0.137E+00  0.137E+00
  -0.737  0.417E+00  0.139E+00  0.139E+00  0.139E+00
  -0.727  0.425E+00  0.142E+00  0.142E+00  0.142E+00
  -0.717  0.435E+00  0.145E+00  0.145E+00  0.145E+00
  -0.707  0.446E+00  0.149E+00  0.149E+00  0.149E+00
  -0.697  0.459E+00  0.153E+00  0.153E+00  0.153E+00
  -0.687  0.473E+00  0.158E+00  0.158E+00  0.158E+00
  -0.677  0.487E+00  0.162E+00  0.162E+00  0.162E+00
  -0.667  0.501E+00  0.167E+00  0.167E+00  0.167E+00
  -0.657  0.514E+00  0.171E+00  0.171E+00  0.171E+00
  -0.647  0.525E+00  0.175E+00  0.175E+00  0.175E+00
  -0.637  0.534E+00  0.178E+00  0.178E+00  0.178E+00
  -0.627  0.540E+00  0.180E+00  0.180E+00  0.180E+00
  -0.617  0.543E+00  0.181E+00  0.181E+00  0.181E+00
  -0.607  0.542E+00  0.181E+00  0.181E+00  0.181E+00
  -0.597  0.536E+00  0.179E+00  0.179E+00  0.179E+00
  -0.587  0.526E+00  0.175E+00  0.175E+00  0.175E+00
  -0.577  0.512E+00  0.171E+00  0.171E+00  0.171E+00
  -0.567  0.494E+00  0.165E+00  0.165E+00  0.165E+00
  -0.557  0.472E+00  0.157E+00  0.157E+00  0.157E+00
  -0.547  0.446E+00  0.149E+00  0.149E+00  0.149E+00
  -0.537  0.418E+00  0.139E+00  0.139E+00  0.139E+00
  -0.527  0.388E+00  0.129E+00  0.129E+00  0.129E+00
  -0.517  0.356E+00  0.119E+00  0.119E+00  0.119E+00
  -0.507  0.324E+00  0.108E+00  0.108E+00  0.108E+00
  -0.497  0.292E+00  0.972E-01  0.972E-01  0.972E-01
  -0.487  0.260E+00  0.866E-01  0.866E-01  0.866E-01
  -0.477  0.229E+00  0.764E-01  0.764E-01  0.764E-01
  -0.467  0.200E+00  0.666E-01  0.666E-01  0.666E-01
  -0.457  0.173E+00  0.576E-01  0.576E-01  0.576E-01
  -0.447  0.148E+00  0.492E-01  0.492E-01  0.492E-01
  -0.437  0.125E+00  0.416E-01  0.416E-01  0.416E-01
  -0.427  0.105E+00  0.348E-01  0.348E-01  0.348E-01
  -0.417  0.866E-01  0.289E-01  0.289E-01  0.289E-01
  -0.407  0.711E-01  0.237E-01  0.237E-01  0.237E-01
  -0.397  0.577E-01  0.192E-01  0.192E-01  0.192E-01
  -0.387  0.464E-01  0.155E-01  0.155E-01  0.155E-01
  -0.377  0.371E-01  0.124E-01  0.124E-01  0.124E-01
  -0.367  0.294E-01  0.979E-02  0.979E-02  0.979E-02
  -0.357  0.232E-01  0.773E-02  0.773E-02  0.773E-02
  -0.347  0.183E-01  0.611E-02  0.611E-02  0.611E-02
  -0.337  0.146E-01  0.487E-02  0.487E-02  0.487E-02
  -0.327  0.120E-01  0.399E-02  0.399E-02  0.399E-02
  -0.317  0.102E-01  0.340E-02  0.340E-02  0.340E-02
  -0.307  0.931E-02  0.310E-02  0.310E-02  0.310E-02
  -0.297  0.918E-02  0.306E-02  0.306E-02  0.306E-02
  -0.287  0.982E-02  0.327E-02  0.327E-02  0.327E-02
  -0.277  0.112E-01  0.375E-02  0.375E-02  0.375E-02
  -0.267  0.135E-01  0.449E-02  0.449E-02  0.449E-02
  -0.257  0.166E-01  0.552E-02  0.552E-02  0.552E-02
  -0.247  0.206E-01  0.687E-02  0.687E-02  0.687E-02
  -0.237  0.257E-01  0.856E-02  0.856E-02  0.856E-02
  -0.227  0.319E-01  0.106E-01  0.106E-01  0.106E-01
  -0.217  0.393E-01  0.131E-01  0.131E-01  0.131E-01
  -0.207  0.481E-01  0.160E-01  0.160E-01  0.160E-01
  -0.197  0.582E-01  0.194E-01  0.194E-01  0.194E-01
  -0.187  0.698E-01  0.233E-01  0.233E-01  0.233E-01
  -0.177  0.828E-01  0.276E-01  0.276E-01  0.276E-01
  -0.167  0.973E-01  0.324E-01  0.324E-01  0.324E-01
  -0.157  0.113E+00  0.376E-01  0.376E-01  0.376E-01
  -0.147  0.130E+00  0.433E-01  0.433E-01  0.433E-01
  -0.137  0.148E+00  0.492E-01  0.492E-01  0.492E-01
  -0.127  0.166E+00  0.553E-01  0.553E-01  0.553E-01
  -0.117  0.185E+00  0.615E-01  0.615E-01  0.615E-01
  -0.107  0.203E+00  0.677E-01  0.677E-01  0.677E-01
  -0.097  0.221E+00  0.737E-01  0.737E-01  0.737E-01
  -0.087  0.238E+00  0.793E-01  0.793E-01  0.793E-01
  -0.077  0.254E+00  0.845E-01  0.845E-01  0.845E-01
  -0.067  0.267E+00  0.891E-01  0.891E-01  0.891E-01
  -0.057  0.279E+00  0.929E-01  0.929E-01  0.929E-01
  -0.047  0.287E+00  0.958E-01  0.958E-01  0.958E-01
  -0.037  0.293E+00  0.978E-01  0.978E-01  0.978E-01
  -0.027  0.296E+00  0.987E-01  0.987E-01  0.987E-01
  -0.017  0.296E+00  0.986E-01  0.986E-01  0.986E-01
  -0.007  0.292E+00  0.975E-01  0.975E-01  0.975E-01
   0.003  0.286E+00  0.953E-01  0.953E-01  0.953E-01
   0.013  0.277E+00  0.923E-01  0.923E-01  0.923E-01
   0.023  0.265E+00  0.884E-01  0.884E-01  0.884E-01
   0.033  0.251E+00  0.838E-01  0.838E-01  0.838E-01
   0.043  0.236E+00  0.788E-01  0.788E-01  0.788E-01
   0.053  0.220E+00  0.733E-01  0.733E-01  0.733E-01
   0.063  0.203E+00  0.677E-01  0.677E-01  0.677E-01
   0.073  0.186E+00  0.621E-01  0.621E-01  0.621E-01
   0.083  0.170E+00  0.566E-01  0.566E-01  0.566E-01
   0.093  0.154E+00  0.515E-01  0.515E-01  0.515E-01
   0.103  0.140E+00  0.468E-01  0.468E-01  0.468E-01
   0.113  0.128E+00  0.426E-01  0.426E-01  0.426E-01
   0.123  0.118E+00  0.392E-01  0.392E-01  0.392E-01
   0.133  0.109E+00  0.365E-01  0.365E-01  0.365E-01
   0.143  0.104E+00  0.346E-01  0.346E-01  0.346E-01
   0.153  0.100E+00  0.335E-01  0.335E-01  0.335E-01
   0.163  0.998E-01  0.333E-01  0.333E-01  0.333E-01
   0.173  0.102E+00  0.339E-01  0.339E-01  0.339E-01
   0.183  0.106E+00  0.353E-01  0.353E-01  0.353E-01
   0.193  0.112E+00  0.374E-01  0.374E-01  0.374E-01
   0.203  0.120E+00  0.402E-01  0.402E-01  0.402E-01
   0.213  0.130E+00  0.435E-01  0.435E-01  0.435E-01
   0.223  0.142E+00  0.472E-01  0.472E-01  0.472E-01
   0.233  0.154E+00  0.513E-01  0.513E-01  0.513E-01
   0.243  0.167E+00  0.556E-01  0.556E-01  0.556E-01
   0.253  0.180E+00  0.598E-01  0.598E-01  0.598E-01
   0.263  0.192E+00  0.640E-01  0.640E-01  0.640E-01
   0.273  0.204E+00  0.679E-01  0.679E-01  0.679E-01
   0.283  0.214E+00  0.714E-01  0.714E-01  0.714E-01
   0.293  0.223E+00  0.743E-01  0.743E-01  0.743E-01
   0.303  0.230E+00  0.766E-01  0.766E-01  0.766E-01
   0.313  0.235E+00  0.782E-01  0.782E-01  0.782E-01
   0.323  0.237E+00  0.790E-01  0.790E-01  0.790E-01
   0.333  0.237E+00  0.790E-01  0.790E-01  0.790E-01
   0.343  0.235E+00  0.782E-01  0.782E-01  0.782E-01
   0.353  0.230E+00  0.766E-01  0.766E-01  0.766E-01
   0.363  0.223E+00  0.743E-01  0.743E-01  0.743E-01
   0.373  0.214E+00  0.713E-01  0.713E-01  0.713E-01
   0.383  0.203E+00  0.678E-01  0.678E-01  0.678E-01
   0.393  0.192E+00  0.639E-01  0.639E-01  0.639E-01
   0.403  0.179E+00  0.596E-01  0.596E-01  0.596E-01
   0.413  0.166E+00  0.553E-01  0.553E-01  0.553E-01
   0.423  0.153E+00  0.509E-01  0.509E-01  0.509E-01
   0.433  0.140E+00  0.466E-01  0.466E-01  0.466E-01
   0.443  0.128E+00  0.426E-01  0.426E-01  0.426E-01
   0.453  0.116E+00  0.388E-01  0.388E-01  0.388E-01
   0.463  0.106E+00  0.355E-01  0.355E-01  0.355E-01
   0.473  0.979E-01  0.326E-01  0.326E-01  0.326E-01
   0.483  0.909E-01  0.303E-01  0.303E-01  0.303E-01
   0.493  0.855E-01  0.285E-01  0.285E-01  0.285E-01
   0.503  0.817E-01  0.272E-01  0.272E-01  0.272E-01
   0.513  0.794E-01  0.265E-01  0.265E-01  0.265E-01
   0.523  0.786E-01  0.262E-01  0.262E-01  0.262E-01
   0.533  0.791E-01  0.264E-01  0.264E-01  0.264E-01
   0.543  0.807E-01  0.269E-01  0.269E-01  0.269E-01
   0.553  0.832E-01  0.277E-01  0.277E-01  0.277E-01
   0.563  0.863E-01  0.288E-01  0.288E-01  0.288E-01
   0.573  0.899E-01  0.300E-01  0.300E-01  0.300E-01
   0.583  0.935E-01  0.312E-01  0.312E-01  0.312E-01
   0.593  0.970E-01  0.323E-01  0.323E-01  0.323E-01
   0.603  0.100E+00  0.334E-01  0.334E-01  0.334E-01
   0.613  0.103E+00  0.343E-01  0.343E-01  0.343E-01
   0.623  0.105E+00  0.349E-01  0.349E-01  0.349E-01
   0.633  0.106E+00  0.353E-01  0.353E-01  0.353E-01
   0.643  0.106E+00  0.354E-01  0.354E-01  0.354E-01
   0.653  0.105E+00  0.351E-01  0.351E-01  0.351E-01
   0.663  0.103E+00  0.345E-01  0.345E-01  0.345E-01
   0.673  0.101E+00  0.336E-01  0.336E-01  0.336E-01
   0.683  0.972E-01  0.324E-01  0.324E-01  0.324E-01
   0.693  0.929E-01  0.310E-01  0.310E-01  0.310E-01
   0.703  0.881E-01  0.294E-01  0.294E-01  0.294E-01
   0.713  0.828E-01  0.276E-01  0.276E-01  0.276E-01
   0.723  0.773E-01  0.258E-01  0.258E-01  0.258E-01
   0.733  0.717E-01  0.239E-01  0.239E-01  0.239E-01
   0.743  0.663E-01  0.221E-01  0.221E-01  0.221E-01
   0.753  0.611E-01  0.204E-01  0.204E-01  0.204E-01
   0.763  0.564E-01  0.188E-01  0.188E-01  0.188E-01
   0.773  0.522E-01  0.174E-01  0.174E-01  0.174E-01
   0.783  0.487E-01  0.162E-01  0.162E-01  0.162E-01
   0.793  0.459E-01  0.153E-01  0.153E-01  0.153E-01
   0.803  0.438E-01  0.146E-01  0.146E-01  0.146E-01
   0.813  0.425E-01  0.142E-01  0.142E-01  0.142E-01
   0.823  0.420E-01  0.140E-01  0.140E-01  0.140E-01
   0.833  0.421E-01  0.140E-01  0.140E-01  0.140E-01
   0.843  0.428E-01  0.143E-01  0.143E-01  0.143E-01
   0.853  0.440E-01  0.147E-01  0.147E-01  0.147E-01
   0.863  0.455E-01  0.152E-01  0.152E-01  0.152E-01
   0.873  0.474E-01  0.158E-01  0.158E-01  0.158E-01
   0.883  0.494E-01  0.165E-01  0.165E-01  0.165E-01
   0.893  0.514E-01  0.171E-01  0.171E-01  0.171E-01
   0.903  0.533E-01  0.178E-01  0.178E-01  0.178E-01
   0.913  0.550E-01  0.183E-01  0.183E-01  0.183E-01
   0.923  0.563E-01  0.188E-01  0.188E-01  0.188E-01
   0.933  0.572E-01  0.191E-01  0.191E-01  0.191E-01
   0.943  0.575E-01  0.192E-01  0.192E-01  0.192E-01
   0.953  0.574E-01  0.191E-01  0.191E-01  0.191E-01
   0.963  0.567E-01  0.189E-01  0.189E-01  0.189E-01
   0.973  0.555E-01  0.185E-01  0.185E-01  0.185E-01
   0.983  0.537E-01  0.179E-01  0.179E-01  0.179E-01
   0.993  0.515E-01  0.172E-01  0.172E-01  0.172E-01
   1.003  0.488E-01  0.163E-01  0.163E-01  0.163E-01
   1.013  0.458E-01  0.153E-01  0.153E-01  0.153E-01
   1.023  0.425E-01  0.142E-01  0.142E-01  0.142E-01
   1.033  0.390E-01  0.130E-01  0.130E-01  0.130E-01
   1.043  0.355E-01  0.118E-01  0.118E-01  0.118E-01
   1.053  0.319E-01  0.106E-01  0.106E-01  0.106E-01
   1.063  0.283E-01  0.945E-02  0.945E-02  0.945E-02
   1.073  0.249E-01  0.831E-02  0.831E-02  0.831E-02
   1.083  0.217E-01  0.724E-02  0.724E-02  0.724E-02
   1.093  0.187E-01  0.623E-02  0.623E-02  0.623E-02
   1.103  0.159E-01  0.531E-02  0.531E-02  0.531E-02
   1.113  0.134E-01  0.448E-02  0.448E-02  0.448E-02
   1.123  0.112E-01  0.374E-02  0.374E-02  0.374E-02
   1.133  0.929E-02  0.310E-02  0.310E-02  0.310E-02
   1.143  0.764E-02  0.255E-02  0.255E-02  0.255E-02
   1.153  0.625E-02  0.208E-02  0.208E-02  0.208E-02
   1.163  0.511E-02  0.170E-02  0.170E-02  0.170E-02
   1.173  0.423E-02  0.141E-02  0.141E-02  0.141E-02
   1.183  0.358E-02  0.119E-02  0.119E-02  0.119E-02
   1.193  0.317E-02  0.106E-02  0.106E-02  0.106E-02
   1.203  0.299E-02  0.998E-03  0.998E-03  0.998E-03
   1.213  0.308E-02  0.103E-02  0.103E-02  0.103E-02
   1.223  0.344E-02  0.115E-02  0.115E-02  0.115E-02
   1.233  0.413E-02  0.138E-02  0.138E-02  0.138E-02
   1.243  0.520E-02  0.173E-02  0.173E-02  0.173E-02
   1.253  0.671E-02  0.224E-02  0.224E-02  0.224E-02
   1.263  0.878E-02  0.293E-02  0.293E-02  0.293E-02
   1.273  0.115E-01  0.383E-02  0.383E-02  0.383E-02
   1.283  0.150E-01  0.501E-02  0.501E-02  0.501E-02
   1.293  0.195E-01  0.649E-02  0.649E-02  0.649E-02
   1.303  0.251E-01  0.835E-02  0.835E-02  0.835E-02
   1.313  0.319E-01  0.106E-01  0.106E-01  0.106E-01
   1.323  0.403E-01  0.134E-01  0.134E-01  0.134E-01
   1.333  0.503E-01  0.168E-01  0.168E-01  0.168E-01
   1.343  0.622E-01  0.207E-01  0.207E-01  0.207E-01
   1.353  0.761E-01  0.254E-01  0.254E-01  0.254E-01
   1.363  0.922E-01  0.307E-01  0.307E-01  0.307E-01
   1.373  0.110E+00  0.368E-01  0.368E-01  0.368E-01
   1.383  0.131E+00  0.437E-01  0.437E-01  0.437E-01
   1.393  0.154E+00  0.513E-01  0.513E-01  0.513E-01
   1.403  0.179E+00  0.596E-01  0.596E-01  0.596E-01
   1.413  0.206E+00  0.685E-01  0.685E-01  0.685E-01
   1.423  0.234E+00  0.780E-01  0.780E-01  0.780E-01
   1.433  0.264E+00  0.879E-01  0.879E-01  0.879E-01
   1.443  0.294E+00  0.980E-01  0.980E-01  0.980E-01
   1.453  0.325E+00  0.108E+00  0.108E+00  0.108E+00
   1.463  0.355E+00  0.118E+00  0.118E+00  0.118E+00
   1.473  0.384E+00  0.128E+00  0.128E+00  0.128E+00
   1.483  0.411E+00  0.137E+00  0.137E+00  0.137E+00
   1.493  0.435E+00  0.145E+00  0.145E+00  0.145E+00
   1.503  0.456E+00  0.152E+00  0.152E+00  0.152E+00
   1.513  0.473E+00  0.158E+00  0.158E+00  0.158E+00
   1.523  0.487E+00  0.162E+00  0.162E+00  0.162E+00
   1.533  0.495E+00  0.165E+00  0.165E+00  0.165E+00
   1.543  0.498E+00  0.166E+00  0.166E+00  0.166E+00
   1.553  0.496E+00  0.165E+00  0.165E+00  0.165E+00
   1.563  0.490E+00  0.163E+00  0.163E+00  0.163E+00
   1.573  0.478E+00  0.159E+00  0.159E+00  0.159E+00
   1.583  0.462E+00  0.154E+00  0.154E+00  0.154E+00
   1.593  0.442E+00  0.147E+00  0.147E+00  0.147E+00
   1.603  0.419E+00  0.140E+00  0.140E+00  0.140E+00
   1.613  0.393E+00  0.131E+00  0.131E+00  0.131E+00
   1.623  0.365E+00  0.122E+00  0.122E+00  0.122E+00
   1.633  0.335E+00  0.112E+00  0.112E+00  0.112E+00
   1.643  0.306E+00  0.102E+00  0.102E+00  0.102E+00
   1.653  0.276E+00  0.919E-01  0.919E-01  0.919E-01
   1.663  0.247E+00  0.822E-01  0.822E-01  0.822E-01
   1.673  0.219E+00  0.730E-01  0.730E-01  0.730E-01
   1.683  0.193E+00  0.644E-01  0.644E-01  0.644E-01
   1.693  0.170E+00  0.565E-01  0.565E-01  0.565E-01
   1.703  0.149E+00  0.495E-01  0.495E-01  0.495E-01
   1.713  0.130E+00  0.435E-01  0.435E-01  0.435E-01
   1.723  0.116E+00  0.385E-01  0.385E-01  0.385E-01
   1.733  0.104E+00  0.346E-01  0.346E-01  0.346E-01
   1.743  0.954E-01  0.318E-01  0.318E-01  0.318E-01
   1.753  0.905E-01  0.302E-01  0.302E-01  0.302E-01
   1.763  0.890E-01  0.297E-01  0.297E-01  0.297E-01
   1.773  0.909E-01  0.303E-01  0.303E-01  0.303E-01
   1.783  0.963E-01  0.321E-01  0.321E-01  0.321E-01
   1.793  0.105E+00  0.350E-01  0.350E-01  0.350E-01
   1.803  0.117E+00  0.389E-01  0.389E-01  0.389E-01
   1.813  0.132E+00  0.439E-01  0.439E-01  0.439E-01
   1.823  0.149E+00  0.498E-01  0.498E-01  0.498E-01
   1.833  0.170E+00  0.565E-01  0.565E-01  0.565E-01
   1.843  0.192E+00  0.640E-01  0.640E-01  0.640E-01
   1.853  0.216E+00  0.721E-01  0.721E-01  0.721E-01
   1.863  0.242E+00  0.806E-01  0.806E-01  0.806E-01
   1.873  0.268E+00  0.893E-01  0.893E-01  0.893E-01
   1.883  0.294E+00  0.981E-01  0.981E-01  0.981E-01
   1.893  0.320E+00  0.107E+00  0.107E+00  0.107E+00
   1.903  0.344E+00  0.115E+00  0.115E+00  0.115E+00
   1.913  0.367E+00  0.122E+00  0.122E+00  0.122E+00
   1.923  0.387E+00  0.129E+00  0.129E+00  0.129E+00
   1.933  0.404E+00  0.135E+00  0.135E+00  0.135E+00
   1.943  0.417E+00  0.139E+00  0.139E+00  0.139E+00
   1.953  0.426E+00  0.142E+00  0.142E+00  0.142E+00
   1.963  0.431E+00  0.144E+00  0.144E+00  0.144E+00
   1.973  0.431E+00  0.144E+00  0.144E+00  0.144E+00
   1.983  0.428E+00  0.143E+00  0.143E+00  0.143E+00
   1.993  0.420E+00  0.140E+00  0.140E+00  0.140E+00
   2.003  0.409E+00  0.136E+00  0.136E+00  0.136E+00
   2.013  0.395E+00  0.132E+00  0.132E+00  0.132E+00
   2.023  0.378E+00  0.126E+00  0.126E+00  0.126E+00
   2.033  0.360E+00  0.120E+00  0.120E+00  0.120E+00
   2.043  0.342E+00  0.114E+00  0.114E+00  0.114E+00
   2.053  0.323E+00  0.108E+00  0.108E+00  0.108E+00
   2.063  0.305E+00  0.102E+00  0.102E+00  0.102E+00
   2.073  0.290E+00  0.965E-01  0.965E-01  0.965E-01
   2.083  0.277E+00  0.923E-01  0.923E-01  0.923E-01
   2.093  0.267E+00  0.892E-01  0.892E-01  0.892E-01
   2.103  0.262E+00  0.875E-01  0.875E-01  0.875E-01
   2.113  0.262E+00  0.875E-01  0.875E-01  0.875E-01
   2.123  0.268E+00  0.893E-01  0.893E-01  0.893E-01
   2.133  0.279E+00  0.930E-01  0.930E-01  0.930E-01
   2.143  0.297E+00  0.989E-01  0.989E-01  0.989E-01
   2.153  0.321E+00  0.107E+00  0.107E+00  0.107E+00
   2.163  0.351E+00  0.117E+00  0.117E+00  0.117E+00
   2.173  0.388E+00  0.129E+00  0.129E+00  0.129E+00
   2.183  0.432E+00  0.144E+00  0.144E+00  0.144E+00
   2.193  0.482E+00  0.161E+00  0.161E+00  0.161E+00
   2.203  0.537E+00  0.179E+00  0.179E+00  0.179E+00
   2.213  0.598E+00  0.199E+00  0.199E+00  0.199E+00
   2.223  0.663E+00  0.221E+00  0.221E+00  0.221E+00
   2.233  0.731E+00  0.244E+00  0.244E+00  0.244E+00
   2.243  0.802E+00  0.267E+00  0.267E+00  0.267E+00
   2.253  0.873E+00  0.291E+00  0.291E+00  0.291E+00
   2.263  0.945E+00  0.315E+00  0.315E+00  0.315E+00
   2.273  0.101E+01  0.338E+00  0.338E+00  0.338E+00
   2.283  0.108E+01  0.360E+00  0.360E+00  0.360E+00
   2.293  0.114E+01  0.381E+00  0.381E+00  0.381E+00
   2.303  0.120E+01  0.399E+00  0.399E+00  0.399E+00
   2.313  0.124E+01  0.415E+00  0.415E+00  0.415E+00
   2.323  0.128E+01  0.427E+00  0.427E+00  0.427E+00
   2.333  0.131E+01  0.436E+00  0.436E+00  0.436E+00
   2.343  0.133E+01  0.442E+00  0.442E+00  0.442E+00
   2.353  0.133E+01  0.444E+00  0.444E+00  0.444E+00
   2.363  0.132E+01  0.442E+00  0.442E+00  0.442E+00
   2.373  0.131E+01  0.435E+00  0.435E+00  0.435E+00
   2.383  0.128E+01  0.426E+00  0.426E+00  0.426E+00
   2.393  0.124E+01  0.412E+00  0.412E+00  0.412E+00
   2.403  0.119E+01  0.395E+00  0.395E+00  0.395E+00
   2.413  0.113E+01  0.376E+00  0.376E+00  0.376E+00
   2.423  0.106E+01  0.354E+00  0.354E+00  0.354E+00
   2.433  0.993E+00  0.331E+00  0.331E+00  0.331E+00
   2.443  0.918E+00  0.306E+00  0.306E+00  0.306E+00
   2.453  0.841E+00  0.280E+00  0.280E+00  0.280E+00
   2.463  0.764E+00  0.255E+00  0.255E+00  0.255E+00
   2.473  0.687E+00  0.229E+00  0.229E+00  0.229E+00
   2.483  0.613E+00  0.204E+00  0.204E+00  0.204E+00
   2.493  0.541E+00  0.180E+00  0.180E+00  0.180E+00
   2.503  0.473E+00  0.158E+00  0.158E+00  0.158E+00
   2.513  0.410E+00  0.137E+00  0.137E+00  0.137E+00
   2.523  0.352E+00  0.117E+00  0.117E+00  0.117E+00
   2.533  0.299E+00  0.997E-01  0.997E-01  0.997E-01
   2.543  0.252E+00  0.840E-01  0.840E-01  0.840E-01
   2.553  0.210E+00  0.701E-01  0.701E-01  0.701E-01
   2.563  0.174E+00  0.580E-01  0.580E-01  0.580E-01
   2.573  0.143E+00  0.475E-01  0.475E-01  0.475E-01
   2.583  0.116E+00  0.387E-01  0.387E-01  0.387E-01
   2.593  0.937E-01  0.312E-01  0.312E-01  0.312E-01
   2.603  0.754E-01  0.251E-01  0.251E-01  0.251E-01
   2.613  0.605E-01  0.202E-01  0.202E-01  0.202E-01
   2.623  0.489E-01  0.163E-01  0.163E-01  0.163E-01
   2.633  0.400E-01  0.133E-01  0.133E-01  0.133E-01
   2.643  0.337E-01  0.112E-01  0.112E-01  0.112E-01
   2.653  0.296E-01  0.988E-02  0.988E-02  0.988E-02
   2.663  0.277E-01  0.923E-02  0.923E-02  0.923E-02
   2.673  0.277E-01  0.923E-02  0.923E-02  0.923E-02
   2.683  0.296E-01  0.985E-02  0.985E-02  0.985E-02
   2.693  0.333E-01  0.111E-01  0.111E-01  0.111E-01
   2.703  0.389E-01  0.130E-01  0.130E-01  0.130E-01
   2.713  0.464E-01  0.155E-01  0.155E-01  0.155E-01
   2.723  0.558E-01  0.186E-01  0.186E-01  0.186E-01
   2.733  0.672E-01  0.224E-01  0.224E-01  0.224E-01
   2.743  0.807E-01  0.269E-01  0.269E-01  0.269E-01
   2.753  0.962E-01  0.321E-01  0.321E-01  0.321E-01
   2.763  0.114E+00  0.379E-01  0.379E-01  0.379E-01
   2.773  0.133E+00  0.444E-01  0.444E-01  0.444E-01
   2.783  0.155E+00  0.515E-01  0.515E-01  0.515E-01
   2.793  0.177E+00  0.592E-01  0.592E-01  0.592E-01
   2.803  0.202E+00  0.672E-01  0.672E-01  0.672E-01
   2.813  0.227E+00  0.756E-01  0.756E-01  0.756E-01
   2.823  0.252E+00  0.841E-01  0.841E-01  0.841E-01
   2.833  0.278E+00  0.926E-01  0.926E-01  0.926E-01
   2.843  0.303E+00  0.101E+00  0.101E+00  0.101E+00
   2.853  0.327E+00  0.109E+00  0.109E+00  0.109E+00
   2.863  0.349E+00  0.116E+00  0.116E+00  0.116E+00
   2.873  0.369E+00  0.123E+00  0.123E+00  0.123E+00
   2.883  0.386E+00  0.129E+00  0.129E+00  0.129E+00
   2.893  0.401E+00  0.134E+00  0.134E+00  0.134E+00
   2.903  0.413E+00  0.138E+00  0.138E+00  0.138E+00
   2.913  0.421E+00  0.140E+00  0.140E+00  0.140E+00
   2.923  0.427E+00  0.142E+00  0.142E+00  0.142E+00
   2.933  0.430E+00  0.143E+00  0.143E+00  0.143E+00
   2.943  0.430E+00  0.143E+00  0.143E+00  0.143E+00
   2.953  0.429E+00  0.143E+00  0.143E+00  0.143E+00
   2.963  0.428E+00  0.143E+00  0.143E+00  0.143E+00
   2.973  0.426E+00  0.142E+00  0.142E+00  0.142E+00
   2.983  0.425E+00  0.142E+00  0.142E+00  0.142E+00
   2.993  0.426E+00  0.142E+00  0.142E+00  0.142E+00
   3.003  0.430E+00  0.143E+00  0.143E+00  0.143E+00
   3.013  0.437E+00  0.146E+00  0.146E+00  0.146E+00
   3.023  0.448E+00  0.149E+00  0.149E+00  0.149E+00
   3.033  0.464E+00  0.155E+00  0.155E+00  0.155E+00
   3.043  0.485E+00  0.162E+00  0.162E+00  0.162E+00
   3.053  0.510E+00  0.170E+00  0.170E+00  0.170E+00
   3.063  0.541E+00  0.180E+00  0.180E+00  0.180E+00
   3.073  0.576E+00  0.192E+00  0.192E+00  0.192E+00
   3.083  0.614E+00  0.205E+00  0.205E+00  0.205E+00
   3.093  0.656E+00  0.219E+00  0.219E+00  0.219E+00
   3.103  0.699E+00  0.233E+00  0.233E+00  0.233E+00
   3.113  0.742E+00  0.247E+00  0.247E+00  0.247E+00
   3.123  0.785E+00  0.262E+00  0.262E+00  0.262E+00
   3.133  0.826E+00  0.275E+00  0.275E+00  0.275E+00
   3.143  0.863E+00  0.288E+00  0.288E+00  0.288E+00
   3.153  0.896E+00  0.299E+00  0.299E+00  0.299E+00
   3.163  0.923E+00  0.308E+00  0.308E+00  0.308E+00
   3.173  0.943E+00  0.314E+00  0.314E+00  0.314E+00
   3.183  0.956E+00  0.319E+00  0.319E+00  0.319E+00
   3.193  0.962E+00  0.321E+00  0.321E+00  0.321E+00
   3.203  0.960E+00  0.320E+00  0.320E+00  0.320E+00
   3.213  0.952E+00  0.317E+00  0.317E+00  0.317E+00
   3.223  0.937E+00  0.312E+00  0.312E+00  0.312E+00
   3.233  0.916E+00  0.305E+00  0.305E+00  0.305E+00
   3.243  0.890E+00  0.297E+00  0.297E+00  0.297E+00
   3.253  0.862E+00  0.287E+00  0.287E+00  0.287E+00
   3.263  0.831E+00  0.277E+00  0.277E+00  0.277E+00
   3.273  0.800E+00  0.267E+00  0.267E+00  0.267E+00
   3.283  0.770E+00  0.257E+00  0.257E+00  0.257E+00
   3.293  0.741E+00  0.247E+00  0.247E+00  0.247E+00
   3.303  0.716E+00  0.239E+00  0.239E+00  0.239E+00
   3.313  0.694E+00  0.231E+00  0.231E+00  0.231E+00
   3.323  0.677E+00  0.226E+00  0.226E+00  0.226E+00
   3.333  0.665E+00  0.222E+00  0.222E+00  0.222E+00
   3.343  0.658E+00  0.219E+00  0.219E+00  0.219E+00
   3.353  0.655E+00  0.218E+00  0.218E+00  0.218E+00
   3.363  0.658E+00  0.219E+00  0.219E+00  0.219E+00
   3.373  0.665E+00  0.222E+00  0.222E+00  0.222E+00
   3.383  0.675E+00  0.225E+00  0.225E+00  0.225E+00
   3.393  0.689E+00  0.230E+00  0.230E+00  0.230E+00
   3.403  0.706E+00  0.235E+00  0.235E+00  0.235E+00
   3.413  0.725E+00  0.242E+00  0.242E+00  0.242E+00
   3.423  0.745E+00  0.248E+00  0.248E+00  0.248E+00
   3.433  0.765E+00  0.255E+00  0.255E+00  0.255E+00
   3.443  0.786E+00  0.262E+00  0.262E+00  0.262E+00
   3.453  0.807E+00  0.269E+00  0.269E+00  0.269E+00
   3.463  0.828E+00  0.276E+00  0.276E+00  0.276E+00
   3.473  0.847E+00  0.282E+00  0.282E+00  0.282E+00
   3.483  0.866E+00  0.289E+00  0.289E+00  0.289E+00
   3.493  0.883E+00  0.294E+00  0.294E+00  0.294E+00
   3.503  0.898E+00  0.299E+00  0.299E+00  0.299E+00
   3.513  0.912E+00  0.304E+00  0.304E+00  0.304E+00
   3.523  0.924E+00  0.308E+00  0.308E+00  0.308E+00
   3.533  0.933E+00  0.311E+00  0.311E+00  0.311E+00
   3.543  0.940E+00  0.313E+00  0.313E+00  0.313E+00
   3.553  0.944E+00  0.315E+00  0.315E+00  0.315E+00
   3.563  0.946E+00  0.315E+00  0.315E+00  0.315E+00
   3.573  0.945E+00  0.315E+00  0.315E+00  0.315E+00
   3.583  0.941E+00  0.314E+00  0.314E+00  0.314E+00
   3.593  0.934E+00  0.311E+00  0.311E+00  0.311E+00
   3.603  0.923E+00  0.308E+00  0.308E+00  0.308E+00
   3.613  0.910E+00  0.303E+00  0.303E+00  0.303E+00
   3.623  0.893E+00  0.298E+00  0.298E+00  0.298E+00
   3.633  0.874E+00  0.291E+00  0.291E+00  0.291E+00
   3.643  0.853E+00  0.284E+00  0.284E+00  0.284E+00
   3.653  0.829E+00  0.276E+00  0.276E+00  0.276E+00
   3.663  0.803E+00  0.268E+00  0.268E+00  0.268E+00
   3.673  0.775E+00  0.258E+00  0.258E+00  0.258E+00
   3.683  0.747E+00  0.249E+00  0.249E+00  0.249E+00
   3.693  0.719E+00  0.240E+00  0.240E+00  0.240E+00
   3.703  0.691E+00  0.230E+00  0.230E+00  0.230E+00
   3.713  0.664E+00  0.221E+00  0.221E+00  0.221E+00
   3.723  0.639E+00  0.213E+00  0.213E+00  0.213E+00
   3.733  0.616E+00  0.205E+00  0.205E+00  0.205E+00
   3.743  0.595E+00  0.198E+00  0.198E+00  0.198E+00
   3.753  0.578E+00  0.193E+00  0.193E+00  0.193E+00
   3.763  0.565E+00  0.188E+00  0.188E+00  0.188E+00
   3.773  0.555E+00  0.185E+00  0.185E+00  0.185E+00
   3.783  0.549E+00  0.183E+00  0.183E+00  0.183E+00
   3.793  0.547E+00  0.182E+00  0.182E+00  0.182E+00
   3.803  0.549E+00  0.183E+00  0.183E+00  0.183E+00
   3.813  0.554E+00  0.185E+00  0.185E+00  0.185E+00
   3.823  0.562E+00  0.187E+00  0.187E+00  0.187E+00
   3.833  0.572E+00  0.191E+00  0.191E+00  0.191E+00
   3.843  0.584E+00  0.195E+00  0.195E+00  0.195E+00
   3.853  0.596E+00  0.199E+00  0.199E+00  0.199E+00
   3.863  0.609E+00  0.203E+00  0.203E+00  0.203E+00
   3.873  0.622E+00  0.207E+00  0.207E+00  0.207E+00
   3.883  0.633E+00  0.211E+00  0.211E+00  0.211E+00
   3.893  0.642E+00  0.214E+00  0.214E+00  0.214E+00
   3.903  0.649E+00  0.216E+00  0.216E+00  0.216E+00
   3.913  0.653E+00  0.218E+00  0.218E+00  0.218E+00
   3.923  0.653E+00  0.218E+00  0.218E+00  0.218E+00
   3.933  0.651E+00  0.217E+00  0.217E+00  0.217E+00
   3.943  0.646E+00  0.215E+00  0.215E+00  0.215E+00
   3.953  0.638E+00  0.213E+00  0.213E+00  0.213E+00
   3.963  0.628E+00  0.209E+00  0.209E+00  0.209E+00
   3.973  0.616E+00  0.205E+00  0.205E+00  0.205E+00
   3.983  0.603E+00  0.201E+00  0.201E+00  0.201E+00
   3.993  0.590E+00  0.197E+00  0.197E+00  0.197E+00
   4.003  0.578E+00  0.193E+00  0.193E+00  0.193E+00
   4.013  0.567E+00  0.189E+00  0.189E+00  0.189E+00
   4.023  0.560E+00  0.187E+00  0.187E+00  0.187E+00
   4.033  0.556E+00  0.185E+00  0.185E+00  0.185E+00
   4.043  0.556E+00  0.185E+00  0.185E+00  0.185E+00
   4.053  0.561E+00  0.187E+00  0.187E+00  0.187E+00
   4.063  0.572E+00  0.191E+00  0.191E+00  0.191E+00
   4.073  0.587E+00  0.196E+00  0.196E+00  0.196E+00
   4.083  0.608E+00  0.203E+00  0.203E+00  0.203E+00
   4.093  0.634E+00  0.211E+00  0.211E+00  0.211E+00
   4.103  0.664E+00  0.221E+00  0.221E+00  0.221E+00
   4.113  0.697E+00  0.232E+00  0.232E+00  0.232E+00
   4.123  0.732E+00  0.244E+00  0.244E+00  0.244E+00
   4.133  0.768E+00  0.256E+00  0.256E+00  0.256E+00
   4.143  0.803E+00  0.268E+00  0.268E+00  0.268E+00
   4.153  0.835E+00  0.278E+00  0.278E+00  0.278E+00
   4.163  0.864E+00  0.288E+00  0.288E+00  0.288E+00
   4.173  0.888E+00  0.296E+00  0.296E+00  0.296E+00
   4.183  0.905E+00  0.302E+00  0.302E+00  0.302E+00
   4.193  0.916E+00  0.305E+00  0.305E+00  0.305E+00
   4.203  0.918E+00  0.306E+00  0.306E+00  0.306E+00
   4.213  0.912E+00  0.304E+00  0.304E+00  0.304E+00
   4.223  0.897E+00  0.299E+00  0.299E+00  0.299E+00
   4.233  0.874E+00  0.291E+00  0.291E+00  0.291E+00
   4.243  0.843E+00  0.281E+00  0.281E+00  0.281E+00
   4.253  0.805E+00  0.268E+00  0.268E+00  0.268E+00
   4.263  0.761E+00  0.254E+00  0.254E+00  0.254E+00
   4.273  0.712E+00  0.237E+00  0.237E+00  0.237E+00
   4.283  0.659E+00  0.220E+00  0.220E+00  0.220E+00
   4.293  0.604E+00  0.201E+00  0.201E+00  0.201E+00
   4.303  0.548E+00  0.183E+00  0.183E+00  0.183E+00
   4.313  0.492E+00  0.164E+00  0.164E+00  0.164E+00
   4.323  0.438E+00  0.146E+00  0.146E+00  0.146E+00
   4.333  0.385E+00  0.128E+00  0.128E+00  0.128E+00
   4.343  0.336E+00  0.112E+00  0.112E+00  0.112E+00
   4.353  0.290E+00  0.966E-01  0.966E-01  0.966E-01
   4.363  0.248E+00  0.827E-01  0.827E-01  0.827E-01
   4.373  0.211E+00  0.703E-01  0.703E-01  0.703E-01
   4.383  0.178E+00  0.594E-01  0.594E-01  0.594E-01
   4.393  0.150E+00  0.501E-01  0.501E-01  0.501E-01
   4.403  0.127E+00  0.424E-01  0.424E-01  0.424E-01
   4.413  0.109E+00  0.362E-01  0.362E-01  0.362E-01
   4.423  0.947E-01  0.316E-01  0.316E-01  0.316E-01
   4.433  0.850E-01  0.283E-01  0.283E-01  0.283E-01
   4.443  0.794E-01  0.265E-01  0.265E-01  0.265E-01
   4.453  0.780E-01  0.260E-01  0.260E-01  0.260E-01
   4.463  0.804E-01  0.268E-01  0.268E-01  0.268E-01
   4.473  0.867E-01  0.289E-01  0.289E-01  0.289E-01
   4.483  0.968E-01  0.323E-01  0.323E-01  0.323E-01
   4.493  0.111E+00  0.369E-01  0.369E-01  0.369E-01
   4.503  0.128E+00  0.427E-01  0.427E-01  0.427E-01
   4.513  0.149E+00  0.497E-01  0.497E-01  0.497E-01
   4.523  0.174E+00  0.579E-01  0.579E-01  0.579E-01
   4.533  0.201E+00  0.671E-01  0.671E-01  0.671E-01
   4.543  0.232E+00  0.774E-01  0.774E-01  0.774E-01
   4.553  0.266E+00  0.887E-01  0.887E-01  0.887E-01
   4.563  0.302E+00  0.101E+00  0.101E+00  0.101E+00
   4.573  0.340E+00  0.113E+00  0.113E+00  0.113E+00
   4.583  0.380E+00  0.127E+00  0.127E+00  0.127E+00
   4.593  0.421E+00  0.140E+00  0.140E+00  0.140E+00
   4.603  0.462E+00  0.154E+00  0.154E+00  0.154E+00
   4.613  0.502E+00  0.167E+00  0.167E+00  0.167E+00
   4.623  0.541E+00  0.180E+00  0.180E+00  0.180E+00
   4.633  0.579E+00  0.193E+00  0.193E+00  0.193E+00
   4.643  0.613E+00  0.204E+00  0.204E+00  0.204E+00
   4.653  0.645E+00  0.215E+00  0.215E+00  0.215E+00
   4.663  0.673E+00  0.224E+00  0.224E+00  0.224E+00
   4.673  0.696E+00  0.232E+00  0.232E+00  0.232E+00
   4.683  0.714E+00  0.238E+00  0.238E+00  0.238E+00
   4.693  0.728E+00  0.243E+00  0.243E+00  0.243E+00
   4.703  0.736E+00  0.245E+00  0.245E+00  0.245E+00
   4.713  0.740E+00  0.247E+00  0.247E+00  0.247E+00
   4.723  0.738E+00  0.246E+00  0.246E+00  0.246E+00
   4.733  0.731E+00  0.244E+00  0.244E+00  0.244E+00
   4.743  0.720E+00  0.240E+00  0.240E+00  0.240E+00
   4.753  0.705E+00  0.235E+00  0.235E+00  0.235E+00
   4.763  0.687E+00  0.229E+00  0.229E+00  0.229E+00
   4.773  0.666E+00  0.222E+00  0.222E+00  0.222E+00
   4.783  0.644E+00  0.215E+00  0.215E+00  0.215E+00
   4.793  0.620E+00  0.207E+00  0.207E+00  0.207E+00
   4.803  0.595E+00  0.198E+00  0.198E+00  0.198E+00
   4.813  0.570E+00  0.190E+00  0.190E+00  0.190E+00
   4.823  0.546E+00  0.182E+00  0.182E+00  0.182E+00
   4.833  0.524E+00  0.175E+00  0.175E+00  0.175E+00
   4.843  0.502E+00  0.167E+00  0.167E+00  0.167E+00
   4.853  0.483E+00  0.161E+00  0.161E+00  0.161E+00
   4.863  0.466E+00  0.155E+00  0.155E+00  0.155E+00
   4.873  0.450E+00  0.150E+00  0.150E+00  0.150E+00
   4.883  0.436E+00  0.145E+00  0.145E+00  0.145E+00
   4.893  0.424E+00  0.141E+00  0.141E+00  0.141E+00
   4.903  0.414E+00  0.138E+00  0.138E+00  0.138E+00
   4.913  0.404E+00  0.135E+00  0.135E+00  0.135E+00
   4.923  0.394E+00  0.131E+00  0.131E+00  0.131E+00
   4.933  0.384E+00  0.128E+00  0.128E+00  0.128E+00
   4.943  0.374E+00  0.125E+00  0.125E+00  0.125E+00
   4.953  0.364E+00  0.121E+00  0.121E+00  0.121E+00
   4.963  0.352E+00  0.117E+00  0.117E+00  0.117E+00
   4.973  0.339E+00  0.113E+00  0.113E+00  0.113E+00
   4.983  0.324E+00  0.108E+00  0.108E+00  0.108E+00
   4.993  0.308E+00  0.103E+00  0.103E+00  0.103E+00
   5.003  0.291E+00  0.969E-01  0.969E-01  0.969E-01
   5.013  0.272E+00  0.907E-01  0.907E-01  0.907E-01
   5.023  0.253E+00  0.842E-01  0.842E-01  0.842E-01
   5.033  0.233E+00  0.775E-01  0.775E-01  0.775E-01
   5.043  0.212E+00  0.707E-01  0.707E-01  0.707E-01
   5.053  0.192E+00  0.639E-01  0.639E-01  0.639E-01
   5.063  0.172E+00  0.572E-01  0.572E-01  0.572E-01
   5.073  0.152E+00  0.508E-01  0.508E-01  0.508E-01
   5.083  0.134E+00  0.447E-01  0.447E-01  0.447E-01
   5.093  0.117E+00  0.390E-01  0.390E-01  0.390E-01
   5.103  0.101E+00  0.338E-01  0.338E-01  0.338E-01
   5.113  0.875E-01  0.292E-01  0.292E-01  0.292E-01
   5.123  0.755E-01  0.252E-01  0.252E-01  0.252E-01
   5.133  0.653E-01  0.218E-01  0.218E-01  0.218E-01
   5.143  0.570E-01  0.190E-01  0.190E-01  0.190E-01
   5.153  0.507E-01  0.169E-01  0.169E-01  0.169E-01
   5.163  0.463E-01  0.154E-01  0.154E-01  0.154E-01
   5.173  0.440E-01  0.147E-01  0.147E-01  0.147E-01
   5.183  0.436E-01  0.145E-01  0.145E-01  0.145E-01
   5.193  0.452E-01  0.151E-01  0.151E-01  0.151E-01
   5.203  0.488E-01  0.163E-01  0.163E-01  0.163E-01
   5.213  0.543E-01  0.181E-01  0.181E-01  0.181E-01
   5.223  0.617E-01  0.206E-01  0.206E-01  0.206E-01
   5.233  0.711E-01  0.237E-01  0.237E-01  0.237E-01
   5.243  0.825E-01  0.275E-01  0.275E-01  0.275E-01
   5.253  0.956E-01  0.319E-01  0.319E-01  0.319E-01
   5.263  0.111E+00  0.369E-01  0.369E-01  0.369E-01
   5.273  0.127E+00  0.424E-01  0.424E-01  0.424E-01
   5.283  0.146E+00  0.485E-01  0.485E-01  0.485E-01
   5.293  0.165E+00  0.551E-01  0.551E-01  0.551E-01
   5.303  0.186E+00  0.620E-01  0.620E-01  0.620E-01
   5.313  0.208E+00  0.693E-01  0.693E-01  0.693E-01
   5.323  0.231E+00  0.769E-01  0.769E-01  0.769E-01
   5.333  0.254E+00  0.846E-01  0.846E-01  0.846E-01
   5.343  0.277E+00  0.923E-01  0.923E-01  0.923E-01
   5.353  0.300E+00  0.999E-01  0.999E-01  0.999E-01
   5.363  0.322E+00  0.107E+00  0.107E+00  0.107E+00
   5.373  0.344E+00  0.115E+00  0.115E+00  0.115E+00
   5.383  0.364E+00  0.121E+00  0.121E+00  0.121E+00
   5.393  0.383E+00  0.128E+00  0.128E+00  0.128E+00
   5.403  0.399E+00  0.133E+00  0.133E+00  0.133E+00
   5.413  0.414E+00  0.138E+00  0.138E+00  0.138E+00
   5.423  0.426E+00  0.142E+00  0.142E+00  0.142E+00
   5.433  0.435E+00  0.145E+00  0.145E+00  0.145E+00
   5.443  0.441E+00  0.147E+00  0.147E+00  0.147E+00
   5.453  0.444E+00  0.148E+00  0.148E+00  0.148E+00
   5.463  0.444E+00  0.148E+00  0.148E+00  0.148E+00
   5.473  0.441E+00  0.147E+00  0.147E+00  0.147E+00
   5.483  0.434E+00  0.145E+00  0.145E+00  0.145E+00
   5.493  0.425E+00  0.142E+00  0.142E+00  0.142E+00
   5.503  0.412E+00  0.137E+00  0.137E+00  0.137E+00
   5.513  0.397E+00  0.132E+00  0.132E+00  0.132E+00
   5.523  0.379E+00  0.126E+00  0.126E+00  0.126E+00
   5.533  0.359E+00  0.120E+00  0.120E+00  0.120E+00
   5.543  0.338E+00  0.113E+00  0.113E+00  0.113E+00
   5.553  0.314E+00  0.105E+00  0.105E+00  0.105E+00
   5.563  0.290E+00  0.968E-01  0.968E-01  0.968E-01
   5.573  0.266E+00  0.886E-01  0.886E-01  0.886E-01
   5.583  0.241E+00  0.804E-01  0.804E-01  0.804E-01
   5.593  0.217E+00  0.722E-01  0.722E-01  0.722E-01
   5.603  0.193E+00  0.643E-01  0.643E-01  0.643E-01
   5.613  0.170E+00  0.568E-01  0.568E-01  0.568E-01
   5.623  0.149E+00  0.496E-01  0.496E-01  0.496E-01
   5.633  0.129E+00  0.430E-01  0.430E-01  0.430E-01
   5.643  0.111E+00  0.368E-01  0.368E-01  0.368E-01
   5.653  0.940E-01  0.313E-01  0.313E-01  0.313E-01
   5.663  0.792E-01  0.264E-01  0.264E-01  0.264E-01
   5.673  0.662E-01  0.221E-01  0.221E-01  0.221E-01
   5.683  0.549E-01  0.183E-01  0.183E-01  0.183E-01
   5.693  0.454E-01  0.151E-01  0.151E-01  0.151E-01
   5.703  0.374E-01  0.125E-01  0.125E-01  0.125E-01
   5.713  0.309E-01  0.103E-01  0.103E-01  0.103E-01
   5.723  0.257E-01  0.857E-02  0.857E-02  0.857E-02
   5.733  0.218E-01  0.727E-02  0.727E-02  0.727E-02
   5.743  0.190E-01  0.633E-02  0.633E-02  0.633E-02
   5.753  0.172E-01  0.573E-02  0.573E-02  0.573E-02
   5.763  0.163E-01  0.543E-02  0.543E-02  0.543E-02
   5.773  0.162E-01  0.539E-02  0.539E-02  0.539E-02
   5.783  0.168E-01  0.559E-02  0.559E-02  0.559E-02
   5.793  0.180E-01  0.599E-02  0.599E-02  0.599E-02
   5.803  0.197E-01  0.658E-02  0.658E-02  0.658E-02
   5.813  0.220E-01  0.732E-02  0.732E-02  0.732E-02
   5.823  0.246E-01  0.819E-02  0.819E-02  0.819E-02
   5.833  0.275E-01  0.916E-02  0.916E-02  0.916E-02
   5.843  0.307E-01  0.102E-01  0.102E-01  0.102E-01
   5.853  0.340E-01  0.113E-01  0.113E-01  0.113E-01
   5.863  0.373E-01  0.124E-01  0.124E-01  0.124E-01
   5.873  0.406E-01  0.135E-01  0.135E-01  0.135E-01
   5.883  0.438E-01  0.146E-01  0.146E-01  0.146E-01
   5.893  0.468E-01  0.156E-01  0.156E-01  0.156E-01
   5.903  0.494E-01  0.165E-01  0.165E-01  0.165E-01
   5.913  0.516E-01  0.172E-01  0.172E-01  0.172E-01
   5.923  0.534E-01  0.178E-01  0.178E-01  0.178E-01
   5.933  0.546E-01  0.182E-01  0.182E-01  0.182E-01
   5.943  0.553E-01  0.184E-01  0.184E-01  0.184E-01
   5.953  0.554E-01  0.185E-01  0.185E-01  0.185E-01
   5.963  0.549E-01  0.183E-01  0.183E-01  0.183E-01
   5.973  0.538E-01  0.179E-01  0.179E-01  0.179E-01
   5.983  0.521E-01  0.174E-01  0.174E-01  0.174E-01
   5.993  0.500E-01  0.167E-01  0.167E-01  0.167E-01
   6.003  0.474E-01  0.158E-01  0.158E-01  0.158E-01
   6.013  0.445E-01  0.148E-01  0.148E-01  0.148E-01
   6.023  0.413E-01  0.138E-01  0.138E-01  0.138E-01
   6.033  0.380E-01  0.127E-01  0.127E-01  0.127E-01
   6.043  0.345E-01  0.115E-01  0.115E-01  0.115E-01
   6.053  0.310E-01  0.103E-01  0.103E-01  0.103E-01
   6.063  0.276E-01  0.919E-02  0.919E-02  0.919E-02
   6.073  0.243E-01  0.808E-02  0.808E-02  0.808E-02
   6.083  0.211E-01  0.704E-02  0.704E-02  0.704E-02
   6.093  0.182E-01  0.606E-02  0.606E-02  0.606E-02
   6.103  0.155E-01  0.516E-02  0.516E-02  0.516E-02
   6.113  0.130E-01  0.435E-02  0.435E-02  0.435E-02
   6.123  0.109E-01  0.362E-02  0.362E-02  0.362E-02
   6.133  0.896E-02  0.299E-02  0.299E-02  0.299E-02
   6.143  0.731E-02  0.244E-02  0.244E-02  0.244E-02
   6.153  0.589E-02  0.196E-02  0.196E-02  0.196E-02
   6.163  0.470E-02  0.157E-02  0.157E-02  0.157E-02
   6.173  0.371E-02  0.124E-02  0.124E-02  0.124E-02
   6.183  0.290E-02  0.967E-03  0.967E-03  0.967E-03
   6.193  0.224E-02  0.747E-03  0.747E-03  0.747E-03
   6.203  0.171E-02  0.571E-03  0.571E-03  0.571E-03
   6.213  0.130E-02  0.432E-03  0.432E-03  0.432E-03
   6.223  0.970E-03  0.323E-03  0.323E-03  0.323E-03
   6.233  0.718E-03  0.239E-03  0.239E-03  0.239E-03
   6.243  0.525E-03  0.175E-03  0.175E-03  0.175E-03
   6.253  0.380E-03  0.127E-03  0.127E-03  0.127E-03
   6.263  0.273E-03  0.908E-04  0.908E-04  0.908E-04
   6.273  0.193E-03  0.644E-04  0.644E-04  0.644E-04
   6.283  0.135E-03  0.451E-04  0.451E-04  0.451E-04
   6.293  0.939E-04  0.313E-04  0.313E-04  0.313E-04
   6.303  0.644E-04  0.215E-04  0.215E-04  0.215E-04
   6.313  0.437E-04  0.146E-04  0.146E-04  0.146E-04
   6.323  0.294E-04  0.979E-05  0.979E-05  0.979E-05
   6.333  0.195E-04  0.650E-05  0.650E-05  0.650E-05
   6.343  0.128E-04  0.427E-05  0.427E-05  0.427E-05
   6.353  0.833E-05  0.278E-05  0.278E-05  0.278E-05
   6.363  0.536E-05  0.179E-05  0.179E-05  0.179E-05
