# E (eV)   ldos(E)   pdos(E)    pdos(E)    pdos(E)   
  -6.281  0.181E-17  0.603E-18  0.603E-18  0.603E-18
  -6.271  0.280E-17  0.932E-18  0.932E-18  0.932E-18
  -6.261  0.427E-17  0.142E-17  0.142E-17  0.142E-17
  -6.251  0.647E-17  0.216E-17  0.216E-17  0.216E-17
  -6.241  0.968E-17  0.323E-17  0.323E-17  0.323E-17
  -6.231  0.143E-16  0.478E-17  0.478E-17  0.478E-17
  -6.221  0.210E-16  0.699E-17  0.699E-17  0.699E-17
  -6.211  0.106E-12  0.354E-13  0.354E-13  0.354E-13
  -6.201  0.224E-12  0.746E-13  0.746E-13  0.746E-13
  -6.191  0.466E-12  0.155E-12  0.155E-12  0.155E-12
  -6.181  0.961E-12  0.320E-12  0.320E-12  0.320E-12
  -6.171  0.196E-11  0.653E-12  0.653E-12  0.653E-12
  -6.161  0.395E-11  0.132E-11  0.132E-11  0.132E-11
  -6.151  0.788E-11  0.263E-11  0.263E-11  0.263E-11
  -6.141  0.156E-10  0.519E-11  0.519E-11  0.519E-11
  -6.131  0.304E-10  0.101E-10  0.101E-10  0.101E-10
  -6.121  0.587E-10  0.196E-10  0.196E-10  0.196E-10
  -6.111  0.112E-09  0.374E-10  0.374E-10  0.374E-10
  -6.101  0.212E-09  0.707E-10  0.707E-10  0.707E-10
  -6.091  0.396E-09  0.132E-09  0.132E-09  0.132E-09
  -6.081  0.734E-09  0.245E-09  0.245E-09  0.245E-09
  -6.071  0.134E-08  0.448E-09  0.448E-09  0.448E-09
  -6.061  0.243E-08  0.810E-09  0.810E-09  0.810E-09
  -6.051  0.435E-08  0.145E-08  0.145E-08  0.145E-08
  -6.041  0.771E-08  0.257E-08  0.257E-08  0.257E-08
  -6.031  0.135E-07  0.451E-08  0.451E-08  0.451E-08
  -6.021  0.234E-07  0.782E-08  0.782E-08  0.782E-08
  -6.011  0.402E-07  0.134E-07  0.134E-07  0.134E-07
  -6.001  0.682E-07  0.227E-07  0.227E-07  0.227E-07
  -5.991  0.115E-06  0.382E-07  0.382E-07  0.382E-07
  -5.981  0.190E-06  0.634E-07  0.634E-07  0.634E-07
  -5.971  0.313E-06  0.104E-06  0.104E-06  0.104E-06
  -5.961  0.508E-06  0.169E-06  0.169E-06  0.169E-06
  -5.951  0.817E-06  0.272E-06  0.272E-06  0.272E-06
  -5.941  0.130E-05  0.433E-06  0.433E-06  0.433E-06
  -5.931  0.204E-05  0.681E-06  0.681E-06  0.681E-06
  -5.921  0.318E-05  0.106E-05  0.106E-05  0.106E-05
  -5.911  0.490E-05  0.163E-05  0.163E-05  0.163E-05
  -5.901  0.747E-05  0.249E-05  0.249E-05  0.249E-05
  -5.891  0.113E-04  0.375E-05  0.375E-05  0.375E-05
  -5.881  0.168E-04  0.559E-05  0.559E-05  0.559E-05
  -5.871  0.248E-04  0.825E-05  0.825E-05  0.825E-05
  -5.861  0.361E-04  0.120E-04  0.120E-04  0.120E-04
  -5.851  0.522E-04  0.174E-04  0.174E-04  0.174E-04
  -5.841  0.745E-04  0.248E-04  0.248E-04  0.248E-04
  -5.831  0.105E-03  0.351E-04  0.351E-04  0.351E-04
  -5.821  0.147E-03  0.491E-04  0.491E-04  0.491E-04
  -5.811  0.204E-03  0.679E-04  0.679E-04  0.679E-04
  -5.801  0.279E-03  0.929E-04  0.929E-04  0.929E-04
  -5.791  0.378E-03  0.126E-03  0.126E-03  0.126E-03
  -5.781  0.506E-03  0.169E-03  0.169E-03  0.169E-03
  -5.771  0.671E-03  0.224E-03  0.224E-03  0.224E-03
  -5.761  0.880E-03  0.293E-03  0.293E-03  0.293E-03
  -5.751  0.114E-02  0.381E-03  0.381E-03  0.381E-03
  -5.741  0.147E-02  0.489E-03  0.489E-03  0.489E-03
  -5.731  0.187E-02  0.622E-03  0.622E-03  0.622E-03
  -5.721  0.235E-02  0.783E-03  0.783E-03  0.783E-03
  -5.711  0.292E-02  0.975E-03  0.975E-03  0.975E-03
  -5.701  0.360E-02  0.120E-02  0.120E-02  0.120E-02
  -5.691  0.440E-02  0.147E-02  0.147E-02  0.147E-02
  -5.681  0.531E-02  0.177E-02  0.177E-02  0.177E-02
  -5.671  0.635E-02  0.212E-02  0.212E-02  0.212E-02
  -5.661  0.752E-02  0.251E-02  0.251E-02  0.251E-02
  -5.651  0.882E-02  0.294E-02  0.294E-02  0.294E-02
  -5.641  0.102E-01  0.341E-02  0.341E-02  0.341E-02
  -5.631  0.118E-01  0.392E-02  0.392E-02  0.392E-02
  -5.621  0.134E-01  0.447E-02  0.447E-02  0.447E-02
  -5.611  0.151E-01  0.505E-02  0.505E-02  0.505E-02
  -5.601  0.169E-01  0.564E-02  0.564E-02  0.564E-02
  -5.591  0.188E-01  0.626E-02  0.626E-02  0.626E-02
  -5.581  0.206E-01  0.688E-02  0.688E-02  0.688E-02
  -5.571  0.225E-01  0.749E-02  0.749E-02  0.749E-02
  -5.561  0.243E-01  0.809E-02  0.809E-02  0.809E-02
  -5.551  0.260E-01  0.867E-02  0.867E-02  0.867E-02
  -5.541  0.277E-01  0.922E-02  0.922E-02  0.922E-02
  -5.531  0.292E-01  0.973E-02  0.973E-02  0.973E-02
  -5.521  0.306E-01  0.102E-01  0.102E-01  0.102E-01
  -5.511  0.318E-01  0.106E-01  0.106E-01  0.106E-01
  -5.501  0.328E-01  0.109E-01  0.109E-01  0.109E-01
  -5.491  0.336E-01  0.112E-01  0.112E-01  0.112E-01
  -5.481  0.343E-01  0.114E-01  0.114E-01  0.114E-01
  -5.471  0.346E-01  0.115E-01  0.115E-01  0.115E-01
  -5.461  0.348E-01  0.116E-01  0.116E-01  0.116E-01
  -5.451  0.348E-01  0.116E-01  0.116E-01  0.116E-01
  -5.441  0.345E-01  0.115E-01  0.115E-01  0.115E-01
  -5.431  0.340E-01  0.113E-01  0.113E-01  0.113E-01
  -5.421  0.332E-01  0.111E-01  0.111E-01  0.111E-01
  -5.411  0.323E-01  0.108E-01  0.108E-01  0.108E-01
  -5.401  0.312E-01  0.104E-01  0.104E-01  0.104E-01
  -5.391  0.299E-01  0.998E-02  0.998E-02  0.998E-02
  -5.381  0.285E-01  0.950E-02  0.950E-02  0.950E-02
  -5.371  0.270E-01  0.898E-02  0.898E-02  0.898E-02
  -5.361  0.253E-01  0.843E-02  0.843E-02  0.843E-02
  -5.351  0.235E-01  0.785E-02  0.785E-02  0.785E-02
  -5.341  0.217E-01  0.725E-02  0.725E-02  0.725E-02
  -5.331  0.199E-01  0.664E-02  0.664E-02  0.664E-02
  -5.321  0.181E-01  0.604E-02  0.604E-02  0.604E-02
  -5.311  0.163E-01  0.544E-02  0.544E-02  0.544E-02
  -5.301  0.146E-01  0.486E-02  0.486E-02  0.486E-02
  -5.291  0.129E-01  0.431E-02  0.431E-02  0.431E-02
  -5.281  0.114E-01  0.379E-02  0.379E-02  0.379E-02
  -5.271  0.993E-02  0.331E-02  0.331E-02  0.331E-02
  -5.261  0.862E-02  0.287E-02  0.287E-02  0.287E-02
  -5.251  0.746E-02  0.249E-02  0.249E-02  0.249E-02
  -5.241  0.645E-02  0.215E-02  0.215E-02  0.215E-02
  -5.231  0.560E-02  0.187E-02  0.187E-02  0.187E-02
  -5.221  0.492E-02  0.164E-02  0.164E-02  0.164E-02
  -5.211  0.442E-02  0.147E-02  0.147E-02  0.147E-02
  -5.201  0.410E-02  0.137E-02  0.137E-02  0.137E-02
  -5.191  0.398E-02  0.133E-02  0.133E-02  0.133E-02
  -5.181  0.406E-02  0.135E-02  0.135E-02  0.135E-02
  -5.171  0.436E-02  0.145E-02  0.145E-02  0.145E-02
  -5.161  0.489E-02  0.163E-02  0.163E-02  0.163E-02
  -5.151  0.565E-02  0.188E-02  0.188E-02  0.188E-02
  -5.141  0.668E-02  0.223E-02  0.223E-02  0.223E-02
  -5.131  0.798E-02  0.266E-02  0.266E-02  0.266E-02
  -5.121  0.956E-02  0.319E-02  0.319E-02  0.319E-02
  -5.111  0.114E-01  0.381E-02  0.381E-02  0.381E-02
  -5.101  0.136E-01  0.454E-02  0.454E-02  0.454E-02
  -5.091  0.161E-01  0.536E-02  0.536E-02  0.536E-02
  -5.081  0.188E-01  0.628E-02  0.628E-02  0.628E-02
  -5.071  0.218E-01  0.728E-02  0.728E-02  0.728E-02
  -5.061  0.251E-01  0.836E-02  0.836E-02  0.836E-02
  -5.051  0.285E-01  0.951E-02  0.951E-02  0.951E-02
  -5.041  0.321E-01  0.107E-01  0.107E-01  0.107E-01
  -5.031  0.357E-01  0.119E-01  0.119E-01  0.119E-01
  -5.021  0.394E-01  0.131E-01  0.131E-01  0.131E-01
  -5.011  0.429E-01  0.143E-01  0.143E-01  0.143E-01
  -5.001  0.462E-01  0.154E-01  0.154E-01  0.154E-01
  -4.991  0.493E-01  0.164E-01  0.164E-01  0.164E-01
  -4.981  0.520E-01  0.173E-01  0.173E-01  0.173E-01
  -4.971  0.543E-01  0.181E-01  0.181E-01  0.181E-01
  -4.961  0.561E-01  0.187E-01  0.187E-01  0.187E-01
  -4.951  0.573E-01  0.191E-01  0.191E-01  0.191E-01
  -4.941  0.580E-01  0.193E-01  0.193E-01  0.193E-01
  -4.931  0.580E-01  0.193E-01  0.193E-01  0.193E-01
  -4.921  0.575E-01  0.192E-01  0.192E-01  0.192E-01
  -4.911  0.564E-01  0.188E-01  0.188E-01  0.188E-01
  -4.901  0.548E-01  0.183E-01  0.183E-01  0.183E-01
  -4.891  0.528E-01  0.176E-01  0.176E-01  0.176E-01
  -4.881  0.505E-01  0.168E-01  0.168E-01  0.168E-01
  -4.871  0.479E-01  0.160E-01  0.160E-01  0.160E-01
  -4.861  0.452E-01  0.151E-01  0.151E-01  0.151E-01
  -4.851  0.426E-01  0.142E-01  0.142E-01  0.142E-01
  -4.841  0.401E-01  0.134E-01  0.134E-01  0.134E-01
  -4.831  0.379E-01  0.126E-01  0.126E-01  0.126E-01
  -4.821  0.361E-01  0.120E-01  0.120E-01  0.120E-01
  -4.811  0.349E-01  0.116E-01  0.116E-01  0.116E-01
  -4.801  0.344E-01  0.115E-01  0.115E-01  0.115E-01
  -4.791  0.346E-01  0.115E-01  0.115E-01  0.115E-01
  -4.781  0.357E-01  0.119E-01  0.119E-01  0.119E-01
  -4.771  0.378E-01  0.126E-01  0.126E-01  0.126E-01
  -4.761  0.408E-01  0.136E-01  0.136E-01  0.136E-01
  -4.751  0.448E-01  0.149E-01  0.149E-01  0.149E-01
  -4.741  0.498E-01  0.166E-01  0.166E-01  0.166E-01
  -4.731  0.558E-01  0.186E-01  0.186E-01  0.186E-01
  -4.721  0.628E-01  0.209E-01  0.209E-01  0.209E-01
  -4.711  0.706E-01  0.235E-01  0.235E-01  0.235E-01
  -4.701  0.790E-01  0.263E-01  0.263E-01  0.263E-01
  -4.691  0.881E-01  0.294E-01  0.294E-01  0.294E-01
  -4.681  0.976E-01  0.325E-01  0.325E-01  0.325E-01
  -4.671  0.107E+00  0.357E-01  0.357E-01  0.357E-01
  -4.661  0.117E+00  0.389E-01  0.389E-01  0.389E-01
  -4.651  0.126E+00  0.420E-01  0.420E-01  0.420E-01
  -4.641  0.135E+00  0.450E-01  0.450E-01  0.450E-01
  -4.631  0.143E+00  0.476E-01  0.476E-01  0.476E-01
  -4.621  0.150E+00  0.500E-01  0.500E-01  0.500E-01
  -4.611  0.156E+00  0.520E-01  0.520E-01  0.520E-01
  -4.601  0.161E+00  0.535E-01  0.535E-01  0.535E-01
  -4.591  0.164E+00  0.546E-01  0.546E-01  0.546E-01
  -4.581  0.165E+00  0.551E-01  0.551E-01  0.551E-01
  -4.571  0.165E+00  0.551E-01  0.551E-01  0.551E-01
  -4.561  0.164E+00  0.546E-01  0.546E-01  0.546E-01
  -4.551  0.161E+00  0.535E-01  0.535E-01  0.535E-01
  -4.541  0.156E+00  0.520E-01  0.520E-01  0.520E-01
  -4.531  0.150E+00  0.500E-01  0.500E-01  0.500E-01
  -4.521  0.143E+00  0.477E-01  0.477E-01  0.477E-01
  -4.511  0.135E+00  0.450E-01  0.450E-01  0.450E-01
  -4.501  0.126E+00  0.421E-01  0.421E-01  0.421E-01
  -4.491  0.117E+00  0.391E-01  0.391E-01  0.391E-01
  -4.481  0.108E+00  0.359E-01  0.359E-01  0.359E-01
  -4.471  0.979E-01  0.326E-01  0.326E-01  0.326E-01
  -4.461  0.883E-01  0.294E-01  0.294E-01  0.294E-01
  -4.451  0.789E-01  0.263E-01  0.263E-01  0.263E-01
  -4.441  0.698E-01  0.233E-01  0.233E-01  0.233E-01
  -4.431  0.612E-01  0.204E-01  0.204E-01  0.204E-01
  -4.421  0.532E-01  0.177E-01  0.177E-01  0.177E-01
  -4.411  0.458E-01  0.153E-01  0.153E-01  0.153E-01
  -4.401  0.391E-01  0.130E-01  0.130E-01  0.130E-01
  -4.391  0.331E-01  0.110E-01  0.110E-01  0.110E-01
  -4.381  0.277E-01  0.925E-02  0.925E-02  0.925E-02
  -4.371  0.230E-01  0.768E-02  0.768E-02  0.768E-02
  -4.361  0.190E-01  0.633E-02  0.633E-02  0.633E-02
  -4.351  0.155E-01  0.516E-02  0.516E-02  0.516E-02
  -4.341  0.125E-01  0.418E-02  0.418E-02  0.418E-02
  -4.331  0.101E-01  0.336E-02  0.336E-02  0.336E-02
  -4.321  0.805E-02  0.268E-02  0.268E-02  0.268E-02
  -4.311  0.641E-02  0.214E-02  0.214E-02  0.214E-02
  -4.301  0.510E-02  0.170E-02  0.170E-02  0.170E-02
  -4.291  0.409E-02  0.136E-02  0.136E-02  0.136E-02
  -4.281  0.334E-02  0.111E-02  0.111E-02  0.111E-02
  -4.271  0.282E-02  0.940E-03  0.940E-03  0.940E-03
  -4.261  0.250E-02  0.834E-03  0.834E-03  0.834E-03
  -4.251  0.237E-02  0.791E-03  0.791E-03  0.791E-03
  -4.241  0.242E-02  0.807E-03  0.807E-03  0.807E-03
  -4.231  0.264E-02  0.880E-03  0.880E-03  0.880E-03
  -4.221  0.303E-02  0.101E-02  0.101E-02  0.101E-02
  -4.211  0.359E-02  0.120E-02  0.120E-02  0.120E-02
  -4.201  0.433E-02  0.144E-02  0.144E-02  0.144E-02
  -4.191  0.526E-02  0.175E-02  0.175E-02  0.175E-02
  -4.181  0.638E-02  0.213E-02  0.213E-02  0.213E-02
  -4.171  0.772E-02  0.257E-02  0.257E-02  0.257E-02
  -4.161  0.926E-02  0.309E-02  0.309E-02  0.309E-02
  -4.151  0.110E-01  0.367E-02  0.367E-02  0.367E-02
  -4.141  0.130E-01  0.433E-02  0.433E-02  0.433E-02
  -4.131  0.152E-01  0.506E-02  0.506E-02  0.506E-02
  -4.121  0.176E-01  0.586E-02  0.586E-02  0.586E-02
  -4.111  0.202E-01  0.672E-02  0.672E-02  0.672E-02
  -4.101  0.229E-01  0.764E-02  0.764E-02  0.764E-02
  -4.091  0.258E-01  0.860E-02  0.860E-02  0.860E-02
  -4.081  0.288E-01  0.960E-02  0.960E-02  0.960E-02
  -4.071  0.319E-01  0.106E-01  0.106E-01  0.106E-01
  -4.061  0.350E-01  0.117E-01  0.117E-01  0.117E-01
  -4.051  0.382E-01  0.127E-01  0.127E-01  0.127E-01
  -4.041  0.414E-01  0.138E-01  0.138E-01  0.138E-01
  -4.031  0.447E-01  0.149E-01  0.149E-01  0.149E-01
  -4.021  0.479E-01  0.160E-01  0.160E-01  0.160E-01
  -4.011  0.513E-01  0.171E-01  0.171E-01  0.171E-01
  -4.001  0.547E-01  0.182E-01  0.182E-01  0.182E-01
  -3.991  0.582E-01  0.194E-01  0.194E-01  0.194E-01
  -3.981  0.619E-01  0.206E-01  0.206E-01  0.206E-01
  -3.971  0.658E-01  0.219E-01  0.219E-01  0.219E-01
  -3.961  0.700E-01  0.233E-01  0.233E-01  0.233E-01
  -3.951  0.746E-01  0.249E-01  0.249E-01  0.249E-01
  -3.941  0.795E-01  0.265E-01  0.265E-01  0.265E-01
  -3.931  0.849E-01  0.283E-01  0.283E-01  0.283E-01
  -3.921  0.906E-01  0.302E-01  0.302E-01  0.302E-01
  -3.911  0.968E-01  0.323E-01  0.323E-01  0.323E-01
  -3.901  0.103E+00  0.345E-01  0.345E-01  0.345E-01
  -3.891  0.110E+00  0.368E-01  0.368E-01  0.368E-01
  -3.881  0.117E+00  0.391E-01  0.391E-01  0.391E-01
  -3.871  0.125E+00  0.415E-01  0.415E-01  0.415E-01
  -3.861  0.132E+00  0.439E-01  0.439E-01  0.439E-01
  -3.851  0.139E+00  0.463E-01  0.463E-01  0.463E-01
  -3.841  0.146E+00  0.486E-01  0.486E-01  0.486E-01
  -3.831  0.152E+00  0.508E-01  0.508E-01  0.508E-01
  -3.821  0.159E+00  0.528E-01  0.528E-01  0.528E-01
  -3.811  0.164E+00  0.547E-01  0.547E-01  0.547E-01
  -3.801  0.169E+00  0.564E-01  0.564E-01  0.564E-01
  -3.791  0.174E+00  0.579E-01  0.579E-01  0.579E-01
  -3.781  0.178E+00  0.593E-01  0.593E-01  0.593E-01
  -3.771  0.181E+00  0.605E-01  0.605E-01  0.605E-01
  -3.761  0.185E+00  0.615E-01  0.615E-01  0.615E-01
  -3.751  0.187E+00  0.625E-01  0.625E-01  0.625E-01
  -3.741  0.190E+00  0.634E-01  0.634E-01  0.634E-01
  -3.731  0.193E+00  0.642E-01  0.642E-01  0.642E-01
  -3.721  0.195E+00  0.651E-01  0.651E-01  0.651E-01
  -3.711  0.198E+00  0.659E-01  0.659E-01  0.659E-01
  -3.701  0.200E+00  0.667E-01  0.667E-01  0.667E-01
  -3.691  0.203E+00  0.675E-01  0.675E-01  0.675E-01
  -3.681  0.205E+00  0.683E-01  0.683E-01  0.683E-01
  -3.671  0.207E+00  0.691E-01  0.691E-01  0.691E-01
  -3.661  0.209E+00  0.697E-01  0.697E-01  0.697E-01
  -3.651  0.211E+00  0.703E-01  0.703E-01  0.703E-01
  -3.641  0.212E+00  0.707E-01  0.707E-01  0.707E-01
  -3.631  0.213E+00  0.709E-01  0.709E-01  0.709E-01
  -3.621  0.213E+00  0.709E-01  0.709E-01  0.709E-01
  -3.611  0.212E+00  0.707E-01  0.707E-01  0.707E-01
  -3.601  0.211E+00  0.704E-01  0.704E-01  0.704E-01
  -3.591  0.209E+00  0.698E-01  0.698E-01  0.698E-01
  -3.581  0.207E+00  0.690E-01  0.690E-01  0.690E-01
  -3.571  0.204E+00  0.681E-01  0.681E-01  0.681E-01
  -3.561  0.201E+00  0.670E-01  0.670E-01  0.670E-01
  -3.551  0.198E+00  0.659E-01  0.659E-01  0.659E-01
  -3.541  0.194E+00  0.648E-01  0.648E-01  0.648E-01
  -3.531  0.191E+00  0.636E-01  0.636E-01  0.636E-01
  -3.521  0.188E+00  0.625E-01  0.625E-01  0.625E-01
  -3.511  0.184E+00  0.615E-01  0.615E-01  0.615E-01
  -3.501  0.181E+00  0.605E-01  0.605E-01  0.605E-01
  -3.491  0.179E+00  0.596E-01  0.596E-01  0.596E-01
  -3.481  0.176E+00  0.587E-01  0.587E-01  0.587E-01
  -3.471  0.173E+00  0.578E-01  0.578E-01  0.578E-01
  -3.461  0.171E+00  0.569E-01  0.569E-01  0.569E-01
  -3.451  0.168E+00  0.560E-01  0.560E-01  0.560E-01
  -3.441  0.165E+00  0.549E-01  0.549E-01  0.549E-01
  -3.431  0.161E+00  0.537E-01  0.537E-01  0.537E-01
  -3.421  0.157E+00  0.523E-01  0.523E-01  0.523E-01
  -3.411  0.152E+00  0.507E-01  0.507E-01  0.507E-01
  -3.401  0.147E+00  0.489E-01  0.489E-01  0.489E-01
  -3.391  0.140E+00  0.468E-01  0.468E-01  0.468E-01
  -3.381  0.133E+00  0.445E-01  0.445E-01  0.445E-01
  -3.371  0.126E+00  0.420E-01  0.420E-01  0.420E-01
  -3.361  0.118E+00  0.393E-01  0.393E-01  0.393E-01
  -3.351  0.109E+00  0.364E-01  0.364E-01  0.364E-01
  -3.341  0.100E+00  0.335E-01  0.335E-01  0.335E-01
  -3.331  0.915E-01  0.305E-01  0.305E-01  0.305E-01
  -3.321  0.825E-01  0.275E-01  0.275E-01  0.275E-01
  -3.311  0.737E-01  0.246E-01  0.246E-01  0.246E-01
  -3.301  0.652E-01  0.217E-01  0.217E-01  0.217E-01
  -3.291  0.571E-01  0.190E-01  0.190E-01  0.190E-01
  -3.281  0.495E-01  0.165E-01  0.165E-01  0.165E-01
  -3.271  0.424E-01  0.141E-01  0.141E-01  0.141E-01
  -3.261  0.360E-01  0.120E-01  0.120E-01  0.120E-01
  -3.251  0.303E-01  0.101E-01  0.101E-01  0.101E-01
  -3.241  0.252E-01  0.839E-02  0.839E-02  0.839E-02
  -3.231  0.207E-01  0.691E-02  0.691E-02  0.691E-02
  -3.221  0.169E-01  0.564E-02  0.564E-02  0.564E-02
  -3.211  0.137E-01  0.456E-02  0.456E-02  0.456E-02
  -3.201  0.110E-01  0.366E-02  0.366E-02  0.366E-02
  -3.191  0.878E-02  0.293E-02  0.293E-02  0.293E-02
  -3.181  0.704E-02  0.235E-02  0.235E-02  0.235E-02
  -3.171  0.571E-02  0.190E-02  0.190E-02  0.190E-02
  -3.161  0.474E-02  0.158E-02  0.158E-02  0.158E-02
  -3.151  0.413E-02  0.138E-02  0.138E-02  0.138E-02
  -3.141  0.383E-02  0.128E-02  0.128E-02  0.128E-02
  -3.131  0.386E-02  0.129E-02  0.129E-02  0.129E-02
  -3.121  0.421E-02  0.140E-02  0.140E-02  0.140E-02
  -3.111  0.490E-02  0.163E-02  0.163E-02  0.163E-02
  -3.101  0.596E-02  0.199E-02  0.199E-02  0.199E-02
  -3.091  0.744E-02  0.248E-02  0.248E-02  0.248E-02
  -3.081  0.937E-02  0.312E-02  0.312E-02  0.312E-02
  -3.071  0.118E-01  0.394E-02  0.394E-02  0.394E-02
  -3.061  0.149E-01  0.495E-02  0.495E-02  0.495E-02
  -3.051  0.185E-01  0.618E-02  0.618E-02  0.618E-02
  -3.041  0.229E-01  0.765E-02  0.765E-02  0.765E-02
  -3.031  0.281E-01  0.937E-02  0.937E-02  0.937E-02
  -3.021  0.341E-01  0.114E-01  0.114E-01  0.114E-01
  -3.011  0.409E-01  0.136E-01  0.136E-01  0.136E-01
  -3.001  0.487E-01  0.162E-01  0.162E-01  0.162E-01
  -2.991  0.572E-01  0.191E-01  0.191E-01  0.191E-01
  -2.981  0.666E-01  0.222E-01  0.222E-01  0.222E-01
  -2.971  0.767E-01  0.256E-01  0.256E-01  0.256E-01
  -2.961  0.874E-01  0.291E-01  0.291E-01  0.291E-01
  -2.951  0.986E-01  0.329E-01  0.329E-01  0.329E-01
  -2.941  0.110E+00  0.367E-01  0.367E-01  0.367E-01
  -2.931  0.122E+00  0.406E-01  0.406E-01  0.406E-01
  -2.921  0.133E+00  0.445E-01  0.445E-01  0.445E-01
  -2.911  0.145E+00  0.482E-01  0.482E-01  0.482E-01
  -2.901  0.156E+00  0.519E-01  0.519E-01  0.519E-01
  -2.891  0.166E+00  0.553E-01  0.553E-01  0.553E-01
  -2.881  0.175E+00  0.584E-01  0.584E-01  0.584E-01
  -2.871  0.184E+00  0.612E-01  0.612E-01  0.612E-01
  -2.861  0.191E+00  0.637E-01  0.637E-01  0.637E-01
  -2.851  0.198E+00  0.659E-01  0.659E-01  0.659E-01
  -2.841  0.203E+00  0.677E-01  0.677E-01  0.677E-01
  -2.831  0.208E+00  0.693E-01  0.693E-01  0.693E-01
  -2.821  0.212E+00  0.706E-01  0.706E-01  0.706E-01
  -2.811  0.215E+00  0.717E-01  0.717E-01  0.717E-01
  -2.801  0.218E+00  0.726E-01  0.726E-01  0.726E-01
  -2.791  0.221E+00  0.735E-01  0.735E-01  0.735E-01
  -2.781  0.223E+00  0.744E-01  0.744E-01  0.744E-01
  -2.771  0.226E+00  0.753E-01  0.753E-01  0.753E-01
  -2.761  0.229E+00  0.762E-01  0.762E-01  0.762E-01
  -2.751  0.232E+00  0.772E-01  0.772E-01  0.772E-01
  -2.741  0.235E+00  0.783E-01  0.783E-01  0.783E-01
  -2.731  0.238E+00  0.795E-01  0.795E-01  0.795E-01
  -2.721  0.242E+00  0.806E-01  0.806E-01  0.806E-01
  -2.711  0.245E+00  0.817E-01  0.817E-01  0.817E-01
  -2.701  0.248E+00  0.826E-01  0.826E-01  0.826E-01
  -2.691  0.250E+00  0.833E-01  0.833E-01  0.833E-01
  -2.681  0.251E+00  0.838E-01  0.838E-01  0.838E-01
  -2.671  0.251E+00  0.838E-01  0.838E-01  0.838E-01
  -2.661  0.250E+00  0.834E-01  0.834E-01  0.834E-01
  -2.651  0.247E+00  0.824E-01  0.824E-01  0.824E-01
  -2.641  0.243E+00  0.809E-01  0.809E-01  0.809E-01
  -2.631  0.236E+00  0.788E-01  0.788E-01  0.788E-01
  -2.621  0.228E+00  0.761E-01  0.761E-01  0.761E-01
  -2.611  0.219E+00  0.729E-01  0.729E-01  0.729E-01
  -2.601  0.208E+00  0.692E-01  0.692E-01  0.692E-01
  -2.591  0.195E+00  0.651E-01  0.651E-01  0.651E-01
  -2.581  0.182E+00  0.606E-01  0.606E-01  0.606E-01
  -2.571  0.168E+00  0.559E-01  0.559E-01  0.559E-01
  -2.561  0.153E+00  0.511E-01  0.511E-01  0.511E-01
  -2.551  0.139E+00  0.462E-01  0.462E-01  0.462E-01
  -2.541  0.124E+00  0.413E-01  0.413E-01  0.413E-01
  -2.531  0.110E+00  0.366E-01  0.366E-01  0.366E-01
  -2.521  0.962E-01  0.321E-01  0.321E-01  0.321E-01
  -2.511  0.834E-01  0.278E-01  0.278E-01  0.278E-01
  -2.501  0.716E-01  0.239E-01  0.239E-01  0.239E-01
  -2.491  0.608E-01  0.203E-01  0.203E-01  0.203E-01
  -2.481  0.510E-01  0.170E-01  0.170E-01  0.170E-01
  -2.471  0.424E-01  0.141E-01  0.141E-01  0.141E-01
  -2.461  0.349E-01  0.116E-01  0.116E-01  0.116E-01
  -2.451  0.284E-01  0.946E-02  0.946E-02  0.946E-02
  -2.441  0.228E-01  0.761E-02  0.761E-02  0.761E-02
  -2.431  0.182E-01  0.606E-02  0.606E-02  0.606E-02
  -2.421  0.143E-01  0.477E-02  0.477E-02  0.477E-02
  -2.411  0.112E-01  0.372E-02  0.372E-02  0.372E-02
  -2.401  0.861E-02  0.287E-02  0.287E-02  0.287E-02
  -2.391  0.656E-02  0.219E-02  0.219E-02  0.219E-02
  -2.381  0.495E-02  0.165E-02  0.165E-02  0.165E-02
  -2.371  0.370E-02  0.123E-02  0.123E-02  0.123E-02
  -2.361  0.273E-02  0.910E-03  0.910E-03  0.910E-03
  -2.351  0.199E-02  0.665E-03  0.665E-03  0.665E-03
  -2.341  0.144E-02  0.480E-03  0.480E-03  0.480E-03
  -2.331  0.103E-02  0.344E-03  0.344E-03  0.344E-03
  -2.321  0.729E-03  0.243E-03  0.243E-03  0.243E-03
  -2.311  0.510E-03  0.170E-03  0.170E-03  0.170E-03
  -2.301  0.353E-03  0.118E-03  0.118E-03  0.118E-03
  -2.291  0.242E-03  0.806E-04  0.806E-04  0.806E-04
  -2.281  0.164E-03  0.546E-04  0.546E-04  0.546E-04
  -2.271  0.110E-03  0.366E-04  0.366E-04  0.366E-04
  -2.261  0.730E-04  0.243E-04  0.243E-04  0.243E-04
  -2.251  0.482E-04  0.161E-04  0.161E-04  0.161E-04
  -2.241  0.317E-04  0.106E-04  0.106E-04  0.106E-04
  -2.231  0.210E-04  0.700E-05  0.700E-05  0.700E-05
  -2.221  0.144E-04  0.481E-05  0.481E-05  0.481E-05
  -2.211  0.108E-04  0.360E-05  0.360E-05  0.360E-05
  -2.201  0.943E-05  0.314E-05  0.314E-05  0.314E-05
  -2.191  0.100E-04  0.335E-05  0.335E-05  0.335E-05
  -2.181  0.127E-04  0.422E-05  0.422E-05  0.422E-05
  -2.171  0.176E-04  0.588E-05  0.588E-05  0.588E-05
  -2.161  0.256E-04  0.854E-05  0.854E-05  0.854E-05
  -2.151  0.377E-04  0.126E-04  0.126E-04  0.126E-04
  -2.141  0.554E-04  0.185E-04  0.185E-04  0.185E-04
  -2.131  0.808E-04  0.269E-04  0.269E-04  0.269E-04
  -2.121  0.117E-03  0.390E-04  0.390E-04  0.390E-04
  -2.111  0.168E-03  0.558E-04  0.558E-04  0.558E-04
  -2.101  0.238E-03  0.792E-04  0.792E-04  0.792E-04
  -2.091  0.333E-03  0.111E-03  0.111E-03  0.111E-03
  -2.081  0.463E-03  0.154E-03  0.154E-03  0.154E-03
  -2.071  0.637E-03  0.212E-03  0.212E-03  0.212E-03
  -2.061  0.868E-03  0.289E-03  0.289E-03  0.289E-03
  -2.051  0.117E-02  0.390E-03  0.390E-03  0.390E-03
  -2.041  0.156E-02  0.520E-03  0.520E-03  0.520E-03
  -2.031  0.206E-02  0.688E-03  0.688E-03  0.688E-03
  -2.021  0.270E-02  0.900E-03  0.900E-03  0.900E-03
  -2.011  0.350E-02  0.117E-02  0.117E-02  0.117E-02
  -2.001  0.449E-02  0.150E-02  0.150E-02  0.150E-02
  -1.991  0.572E-02  0.191E-02  0.191E-02  0.191E-02
  -1.981  0.721E-02  0.240E-02  0.240E-02  0.240E-02
  -1.971  0.901E-02  0.300E-02  0.300E-02  0.300E-02
  -1.961  0.112E-01  0.372E-02  0.372E-02  0.372E-02
  -1.951  0.137E-01  0.456E-02  0.456E-02  0.456E-02
  -1.941  0.167E-01  0.556E-02  0.556E-02  0.556E-02
  -1.931  0.201E-01  0.671E-02  0.671E-02  0.671E-02
  -1.921  0.241E-01  0.804E-02  0.804E-02  0.804E-02
  -1.911  0.287E-01  0.955E-02  0.955E-02  0.955E-02
  -1.901  0.338E-01  0.113E-01  0.113E-01  0.113E-01
  -1.891  0.396E-01  0.132E-01  0.132E-01  0.132E-01
  -1.881  0.460E-01  0.153E-01  0.153E-01  0.153E-01
  -1.871  0.530E-01  0.177E-01  0.177E-01  0.177E-01
  -1.861  0.608E-01  0.203E-01  0.203E-01  0.203E-01
  -1.851  0.692E-01  0.231E-01  0.231E-01  0.231E-01
  -1.841  0.782E-01  0.261E-01  0.261E-01  0.261E-01
  -1.831  0.878E-01  0.293E-01  0.293E-01  0.293E-01
  -1.821  0.979E-01  0.326E-01  0.326E-01  0.326E-01
  -1.811  0.108E+00  0.361E-01  0.361E-01  0.361E-01
  -1.801  0.119E+00  0.398E-01  0.398E-01  0.398E-01
  -1.791  0.130E+00  0.434E-01  0.434E-01  0.434E-01
  -1.781  0.141E+00  0.471E-01  0.471E-01  0.471E-01
  -1.771  0.152E+00  0.508E-01  0.508E-01  0.508E-01
  -1.761  0.163E+00  0.543E-01  0.543E-01  0.543E-01
  -1.751  0.173E+00  0.577E-01  0.577E-01  0.577E-01
  -1.741  0.182E+00  0.608E-01  0.608E-01  0.608E-01
  -1.731  0.191E+00  0.635E-01  0.635E-01  0.635E-01
  -1.721  0.198E+00  0.659E-01  0.659E-01  0.659E-01
  -1.711  0.203E+00  0.677E-01  0.677E-01  0.677E-01
  -1.701  0.207E+00  0.691E-01  0.691E-01  0.691E-01
  -1.691  0.210E+00  0.698E-01  0.698E-01  0.698E-01
  -1.681  0.210E+00  0.700E-01  0.700E-01  0.700E-01
  -1.671  0.209E+00  0.695E-01  0.695E-01  0.695E-01
  -1.661  0.205E+00  0.685E-01  0.685E-01  0.685E-01
  -1.651  0.200E+00  0.668E-01  0.668E-01  0.668E-01
  -1.641  0.193E+00  0.645E-01  0.645E-01  0.645E-01
  -1.631  0.185E+00  0.617E-01  0.617E-01  0.617E-01
  -1.621  0.175E+00  0.585E-01  0.585E-01  0.585E-01
  -1.611  0.165E+00  0.549E-01  0.549E-01  0.549E-01
  -1.601  0.153E+00  0.510E-01  0.510E-01  0.510E-01
  -1.591  0.141E+00  0.469E-01  0.469E-01  0.469E-01
  -1.581  0.128E+00  0.427E-01  0.427E-01  0.427E-01
  -1.571  0.115E+00  0.385E-01  0.385E-01  0.385E-01
  -1.561  0.103E+00  0.343E-01  0.343E-01  0.343E-01
  -1.551  0.909E-01  0.303E-01  0.303E-01  0.303E-01
  -1.541  0.794E-01  0.265E-01  0.265E-01  0.265E-01
  -1.531  0.687E-01  0.229E-01  0.229E-01  0.229E-01
  -1.521  0.588E-01  0.196E-01  0.196E-01  0.196E-01
  -1.511  0.498E-01  0.166E-01  0.166E-01  0.166E-01
  -1.501  0.417E-01  0.139E-01  0.139E-01  0.139E-01
  -1.491  0.346E-01  0.115E-01  0.115E-01  0.115E-01
  -1.481  0.284E-01  0.946E-02  0.946E-02  0.946E-02
  -1.471  0.230E-01  0.768E-02  0.768E-02  0.768E-02
  -1.461  0.185E-01  0.617E-02  0.617E-02  0.617E-02
  -1.451  0.147E-01  0.490E-02  0.490E-02  0.490E-02
  -1.441  0.116E-01  0.385E-02  0.385E-02  0.385E-02
  -1.431  0.899E-02  0.300E-02  0.300E-02  0.300E-02
  -1.421  0.692E-02  0.231E-02  0.231E-02  0.231E-02
  -1.411  0.527E-02  0.176E-02  0.176E-02  0.176E-02
  -1.401  0.397E-02  0.132E-02  0.132E-02  0.132E-02
  -1.391  0.296E-02  0.986E-03  0.986E-03  0.986E-03
  -1.381  0.218E-02  0.728E-03  0.728E-03  0.728E-03
  -1.371  0.159E-02  0.531E-03  0.531E-03  0.531E-03
  -1.361  0.115E-02  0.384E-03  0.384E-03  0.384E-03
  -1.351  0.828E-03  0.276E-03  0.276E-03  0.276E-03
  -1.341  0.592E-03  0.197E-03  0.197E-03  0.197E-03
  -1.331  0.424E-03  0.141E-03  0.141E-03  0.141E-03
  -1.321  0.309E-03  0.103E-03  0.103E-03  0.103E-03
  -1.311  0.236E-03  0.786E-04  0.786E-04  0.786E-04
  -1.301  0.196E-03  0.652E-04  0.652E-04  0.652E-04
  -1.291  0.183E-03  0.611E-04  0.611E-04  0.611E-04
  -1.281  0.198E-03  0.659E-04  0.659E-04  0.659E-04
  -1.271  0.238E-03  0.795E-04  0.795E-04  0.795E-04
  -1.261  0.309E-03  0.103E-03  0.103E-03  0.103E-03
  -1.251  0.415E-03  0.138E-03  0.138E-03  0.138E-03
  -1.241  0.564E-03  0.188E-03  0.188E-03  0.188E-03
  -1.231  0.768E-03  0.256E-03  0.256E-03  0.256E-03
  -1.221  0.104E-02  0.347E-03  0.347E-03  0.347E-03
  -1.211  0.140E-02  0.466E-03  0.466E-03  0.466E-03
  -1.201  0.186E-02  0.622E-03  0.622E-03  0.622E-03
  -1.191  0.246E-02  0.821E-03  0.821E-03  0.821E-03
  -1.181  0.322E-02  0.107E-02  0.107E-02  0.107E-02
  -1.171  0.417E-02  0.139E-02  0.139E-02  0.139E-02
  -1.161  0.536E-02  0.179E-02  0.179E-02  0.179E-02
  -1.151  0.682E-02  0.227E-02  0.227E-02  0.227E-02
  -1.141  0.860E-02  0.287E-02  0.287E-02  0.287E-02
  -1.131  0.107E-01  0.358E-02  0.358E-02  0.358E-02
  -1.121  0.133E-01  0.444E-02  0.444E-02  0.444E-02
  -1.111  0.164E-01  0.546E-02  0.546E-02  0.546E-02
  -1.101  0.200E-01  0.666E-02  0.666E-02  0.666E-02
  -1.091  0.242E-01  0.806E-02  0.806E-02  0.806E-02
  -1.081  0.290E-01  0.968E-02  0.968E-02  0.968E-02
  -1.071  0.346E-01  0.115E-01  0.115E-01  0.115E-01
  -1.061  0.410E-01  0.137E-01  0.137E-01  0.137E-01
  -1.051  0.482E-01  0.161E-01  0.161E-01  0.161E-01
  -1.041  0.563E-01  0.188E-01  0.188E-01  0.188E-01
  -1.031  0.654E-01  0.218E-01  0.218E-01  0.218E-01
  -1.021  0.755E-01  0.252E-01  0.252E-01  0.252E-01
  -1.011  0.866E-01  0.289E-01  0.289E-01  0.289E-01
  -1.001  0.988E-01  0.329E-01  0.329E-01  0.329E-01
  -0.991  0.112E+00  0.373E-01  0.373E-01  0.373E-01
  -0.981  0.126E+00  0.421E-01  0.421E-01  0.421E-01
  -0.971  0.142E+00  0.472E-01  0.472E-01  0.472E-01
  -0.961  0.158E+00  0.526E-01  0.526E-01  0.526E-01
  -0.951  0.175E+00  0.583E-01  0.583E-01  0.583E-01
  -0.941  0.193E+00  0.643E-01  0.643E-01  0.643E-01
  -0.931  0.211E+00  0.704E-01  0.704E-01  0.704E-01
  -0.921  0.230E+00  0.767E-01  0.767E-01  0.767E-01
  -0.911  0.249E+00  0.829E-01  0.829E-01  0.829E-01
  -0.901  0.268E+00  0.892E-01  0.892E-01  0.892E-01
  -0.891  0.286E+00  0.953E-01  0.953E-01  0.953E-01
  -0.881  0.303E+00  0.101E+00  0.101E+00  0.101E+00
  -0.871  0.320E+00  0.107E+00  0.107E+00  0.107E+00
  -0.861  0.335E+00  0.112E+00  0.112E+00  0.112E+00
  -0.851  0.349E+00  0.116E+00  0.116E+00  0.116E+00
  -0.841  0.361E+00  0.120E+00  0.120E+00  0.120E+00
  -0.831  0.372E+00  0.124E+00  0.124E+00  0.124E+00
  -0.821  0.380E+00  0.127E+00  0.127E+00  0.127E+00
  -0.811  0.387E+00  0.129E+00  0.129E+00  0.129E+00
  -0.801  0.392E+00  0.131E+00  0.131E+00  0.131E+00
  -0.791  0.396E+00  0.132E+00  0.132E+00  0.132E+00
  -0.781  0.399E+00  0.133E+00  0.133E+00  0.133E+00
  -0.771  0.401E+00  0.134E+00  0.134E+00  0.134E+00
  -0.761  0.402E+00  0.134E+00  0.134E+00  0.134E+00
  -0.751  0.404E+00  0.135E+00  0.135E+00  0.135E+00
  -0.741  0.406E+00  0.135E+00  0.135E+00  0.135E+00
  -0.731  0.409E+00  0.136E+00  0.136E+00  0.136E+00
  -0.721  0.414E+00  0.138E+00  0.138E+00  0.138E+00
  -0.711  0.420E+00  0.140E+00  0.140E+00  0.140E+00
  -0.701  0.427E+00  0.142E+00  0.142E+00  0.142E+00
  -0.691  0.437E+00  0.146E+00  0.146E+00  0.146E+00
  -0.681  0.447E+00  0.149E+00  0.149E+00  0.149E+00
  -0.671  0.460E+00  0.153E+00  0.153E+00  0.153E+00
  -0.661  0.473E+00  0.158E+00  0.158E+00  0.158E+00
  -0.651  0.487E+00  0.162E+00  0.162E+00  0.162E+00
  -0.641  0.500E+00  0.167E+00  0.167E+00  0.167E+00
  -0.631  0.513E+00  0.171E+00  0.171E+00  0.171E+00
  -0.621  0.525E+00  0.175E+00  0.175E+00  0.175E+00
  -0.611  0.534E+00  0.178E+00  0.178E+00  0.178E+00
  -0.601  0.540E+00  0.180E+00  0.180E+00  0.180E+00
  -0.591  0.543E+00  0.181E+00  0.181E+00  0.181E+00
  -0.581  0.542E+00  0.181E+00  0.181E+00  0.181E+00
  -0.571  0.537E+00  0.179E+00  0.179E+00  0.179E+00
  -0.561  0.528E+00  0.176E+00  0.176E+00  0.176E+00
  -0.551  0.515E+00  0.172E+00  0.172E+00  0.172E+00
  -0.541  0.497E+00  0.166E+00  0.166E+00  0.166E+00
  -0.531  0.476E+00  0.159E+00  0.159E+00  0.159E+00
  -0.521  0.451E+00  0.150E+00  0.150E+00  0.150E+00
  -0.511  0.423E+00  0.141E+00  0.141E+00  0.141E+00
  -0.501  0.394E+00  0.131E+00  0.131E+00  0.131E+00
  -0.491  0.362E+00  0.121E+00  0.121E+00  0.121E+00
  -0.481  0.330E+00  0.110E+00  0.110E+00  0.110E+00
  -0.471  0.298E+00  0.993E-01  0.993E-01  0.993E-01
  -0.461  0.266E+00  0.887E-01  0.887E-01  0.887E-01
  -0.451  0.235E+00  0.784E-01  0.784E-01  0.784E-01
  -0.441  0.206E+00  0.686E-01  0.686E-01  0.686E-01
  -0.431  0.178E+00  0.595E-01  0.595E-01  0.595E-01
  -0.421  0.153E+00  0.510E-01  0.510E-01  0.510E-01
  -0.411  0.130E+00  0.433E-01  0.433E-01  0.433E-01
  -0.401  0.109E+00  0.363E-01  0.363E-01  0.363E-01
  -0.391  0.906E-01  0.302E-01  0.302E-01  0.302E-01
  -0.381  0.746E-01  0.249E-01  0.249E-01  0.249E-01
  -0.371  0.608E-01  0.203E-01  0.203E-01  0.203E-01
  -0.361  0.491E-01  0.164E-01  0.164E-01  0.164E-01
  -0.351  0.393E-01  0.131E-01  0.131E-01  0.131E-01
  -0.341  0.312E-01  0.104E-01  0.104E-01  0.104E-01
  -0.331  0.247E-01  0.823E-02  0.823E-02  0.823E-02
  -0.321  0.195E-01  0.651E-02  0.651E-02  0.651E-02
  -0.311  0.156E-01  0.520E-02  0.520E-02  0.520E-02
  -0.301  0.127E-01  0.423E-02  0.423E-02  0.423E-02
  -0.291  0.108E-01  0.359E-02  0.359E-02  0.359E-02
  -0.281  0.968E-02  0.323E-02  0.323E-02  0.323E-02
  -0.271  0.941E-02  0.314E-02  0.314E-02  0.314E-02
  -0.261  0.991E-02  0.330E-02  0.330E-02  0.330E-02
  -0.251  0.112E-01  0.374E-02  0.374E-02  0.374E-02
  -0.241  0.133E-01  0.444E-02  0.444E-02  0.444E-02
  -0.231  0.163E-01  0.543E-02  0.543E-02  0.543E-02
  -0.221  0.202E-01  0.674E-02  0.674E-02  0.674E-02
  -0.211  0.252E-01  0.839E-02  0.839E-02  0.839E-02
  -0.201  0.313E-01  0.104E-01  0.104E-01  0.104E-01
  -0.191  0.386E-01  0.129E-01  0.129E-01  0.129E-01
  -0.181  0.472E-01  0.157E-01  0.157E-01  0.157E-01
  -0.171  0.572E-01  0.191E-01  0.191E-01  0.191E-01
  -0.161  0.687E-01  0.229E-01  0.229E-01  0.229E-01
  -0.151  0.815E-01  0.272E-01  0.272E-01  0.272E-01
  -0.141  0.958E-01  0.319E-01  0.319E-01  0.319E-01
  -0.131  0.111E+00  0.371E-01  0.371E-01  0.371E-01
  -0.121  0.128E+00  0.427E-01  0.427E-01  0.427E-01
  -0.111  0.146E+00  0.486E-01  0.486E-01  0.486E-01
  -0.101  0.164E+00  0.547E-01  0.547E-01  0.547E-01
  -0.091  0.183E+00  0.609E-01  0.609E-01  0.609E-01
  -0.081  0.201E+00  0.671E-01  0.671E-01  0.671E-01
  -0.071  0.220E+00  0.732E-01  0.732E-01  0.732E-01
  -0.061  0.237E+00  0.789E-01  0.789E-01  0.789E-01
  -0.051  0.252E+00  0.842E-01  0.842E-01  0.842E-01
  -0.041  0.266E+00  0.888E-01  0.888E-01  0.888E-01
  -0.031  0.278E+00  0.927E-01  0.927E-01  0.927E-01
  -0.021  0.287E+00  0.957E-01  0.957E-01  0.957E-01
  -0.011  0.293E+00  0.978E-01  0.978E-01  0.978E-01
  -0.001  0.297E+00  0.988E-01  0.988E-01  0.988E-01
   0.009  0.297E+00  0.988E-01  0.988E-01  0.988E-01
   0.019  0.293E+00  0.978E-01  0.978E-01  0.978E-01
   0.029  0.287E+00  0.957E-01  0.957E-01  0.957E-01
   0.039  0.278E+00  0.927E-01  0.927E-01  0.927E-01
   0.049  0.267E+00  0.889E-01  0.889E-01  0.889E-01
   0.059  0.253E+00  0.844E-01  0.844E-01  0.844E-01
   0.069  0.238E+00  0.794E-01  0.794E-01  0.794E-01
   0.079  0.222E+00  0.739E-01  0.739E-01  0.739E-01
   0.089  0.205E+00  0.683E-01  0.683E-01  0.683E-01
   0.099  0.188E+00  0.626E-01  0.626E-01  0.626E-01
   0.109  0.171E+00  0.570E-01  0.570E-01  0.570E-01
   0.119  0.155E+00  0.518E-01  0.518E-01  0.518E-01
   0.129  0.141E+00  0.469E-01  0.469E-01  0.469E-01
   0.139  0.128E+00  0.426E-01  0.426E-01  0.426E-01
   0.149  0.117E+00  0.390E-01  0.390E-01  0.390E-01
   0.159  0.108E+00  0.361E-01  0.361E-01  0.361E-01
   0.169  0.102E+00  0.339E-01  0.339E-01  0.339E-01
   0.179  0.980E-01  0.327E-01  0.327E-01  0.327E-01
   0.189  0.966E-01  0.322E-01  0.322E-01  0.322E-01
   0.199  0.978E-01  0.326E-01  0.326E-01  0.326E-01
   0.209  0.101E+00  0.338E-01  0.338E-01  0.338E-01
   0.219  0.107E+00  0.357E-01  0.357E-01  0.357E-01
   0.229  0.115E+00  0.383E-01  0.383E-01  0.383E-01
   0.239  0.125E+00  0.415E-01  0.415E-01  0.415E-01
   0.249  0.136E+00  0.452E-01  0.452E-01  0.452E-01
   0.259  0.148E+00  0.492E-01  0.492E-01  0.492E-01
   0.269  0.160E+00  0.535E-01  0.535E-01  0.535E-01
   0.279  0.173E+00  0.578E-01  0.578E-01  0.578E-01
   0.289  0.186E+00  0.621E-01  0.621E-01  0.621E-01
   0.299  0.198E+00  0.661E-01  0.661E-01  0.661E-01
   0.309  0.210E+00  0.698E-01  0.698E-01  0.698E-01
   0.319  0.219E+00  0.731E-01  0.731E-01  0.731E-01
   0.329  0.227E+00  0.757E-01  0.757E-01  0.757E-01
   0.339  0.233E+00  0.776E-01  0.776E-01  0.776E-01
   0.349  0.236E+00  0.788E-01  0.788E-01  0.788E-01
   0.359  0.238E+00  0.792E-01  0.792E-01  0.792E-01
   0.369  0.236E+00  0.788E-01  0.788E-01  0.788E-01
   0.379  0.233E+00  0.775E-01  0.775E-01  0.775E-01
   0.389  0.227E+00  0.755E-01  0.755E-01  0.755E-01
   0.399  0.219E+00  0.729E-01  0.729E-01  0.729E-01
   0.409  0.209E+00  0.696E-01  0.696E-01  0.696E-01
   0.419  0.198E+00  0.659E-01  0.659E-01  0.659E-01
   0.429  0.185E+00  0.618E-01  0.618E-01  0.618E-01
   0.439  0.173E+00  0.575E-01  0.575E-01  0.575E-01
   0.449  0.160E+00  0.532E-01  0.532E-01  0.532E-01
   0.459  0.147E+00  0.489E-01  0.489E-01  0.489E-01
   0.469  0.134E+00  0.448E-01  0.448E-01  0.448E-01
   0.479  0.123E+00  0.409E-01  0.409E-01  0.409E-01
   0.489  0.112E+00  0.375E-01  0.375E-01  0.375E-01
   0.499  0.103E+00  0.345E-01  0.345E-01  0.345E-01
   0.509  0.958E-01  0.319E-01  0.319E-01  0.319E-01
   0.519  0.899E-01  0.300E-01  0.300E-01  0.300E-01
   0.529  0.855E-01  0.285E-01  0.285E-01  0.285E-01
   0.539  0.827E-01  0.276E-01  0.276E-01  0.276E-01
   0.549  0.814E-01  0.271E-01  0.271E-01  0.271E-01
   0.559  0.815E-01  0.272E-01  0.272E-01  0.272E-01
   0.569  0.827E-01  0.276E-01  0.276E-01  0.276E-01
   0.579  0.848E-01  0.283E-01  0.283E-01  0.283E-01
   0.589  0.876E-01  0.292E-01  0.292E-01  0.292E-01
   0.599  0.908E-01  0.303E-01  0.303E-01  0.303E-01
   0.609  0.943E-01  0.314E-01  0.314E-01  0.314E-01
   0.619  0.976E-01  0.325E-01  0.325E-01  0.325E-01
   0.629  0.101E+00  0.336E-01  0.336E-01  0.336E-01
   0.639  0.103E+00  0.344E-01  0.344E-01  0.344E-01
   0.649  0.105E+00  0.350E-01  0.350E-01  0.350E-01
   0.659  0.106E+00  0.354E-01  0.354E-01  0.354E-01
   0.669  0.106E+00  0.354E-01  0.354E-01  0.354E-01
   0.679  0.105E+00  0.352E-01  0.352E-01  0.352E-01
   0.689  0.104E+00  0.346E-01  0.346E-01  0.346E-01
   0.699  0.101E+00  0.337E-01  0.337E-01  0.337E-01
   0.709  0.974E-01  0.325E-01  0.325E-01  0.325E-01
   0.719  0.931E-01  0.310E-01  0.310E-01  0.310E-01
   0.729  0.882E-01  0.294E-01  0.294E-01  0.294E-01
   0.739  0.828E-01  0.276E-01  0.276E-01  0.276E-01
   0.749  0.772E-01  0.257E-01  0.257E-01  0.257E-01
   0.759  0.716E-01  0.239E-01  0.239E-01  0.239E-01
   0.769  0.660E-01  0.220E-01  0.220E-01  0.220E-01
   0.779  0.607E-01  0.202E-01  0.202E-01  0.202E-01
   0.789  0.558E-01  0.186E-01  0.186E-01  0.186E-01
   0.799  0.515E-01  0.172E-01  0.172E-01  0.172E-01
   0.809  0.478E-01  0.159E-01  0.159E-01  0.159E-01
   0.819  0.448E-01  0.149E-01  0.149E-01  0.149E-01
   0.829  0.425E-01  0.142E-01  0.142E-01  0.142E-01
   0.839  0.411E-01  0.137E-01  0.137E-01  0.137E-01
   0.849  0.403E-01  0.134E-01  0.134E-01  0.134E-01
   0.859  0.403E-01  0.134E-01  0.134E-01  0.134E-01
   0.869  0.409E-01  0.136E-01  0.136E-01  0.136E-01
   0.879  0.421E-01  0.140E-01  0.140E-01  0.140E-01
   0.889  0.436E-01  0.145E-01  0.145E-01  0.145E-01
   0.899  0.455E-01  0.152E-01  0.152E-01  0.152E-01
   0.909  0.476E-01  0.159E-01  0.159E-01  0.159E-01
   0.919  0.498E-01  0.166E-01  0.166E-01  0.166E-01
   0.929  0.519E-01  0.173E-01  0.173E-01  0.173E-01
   0.939  0.537E-01  0.179E-01  0.179E-01  0.179E-01
   0.949  0.553E-01  0.184E-01  0.184E-01  0.184E-01
   0.959  0.565E-01  0.188E-01  0.188E-01  0.188E-01
   0.969  0.573E-01  0.191E-01  0.191E-01  0.191E-01
   0.979  0.575E-01  0.192E-01  0.192E-01  0.192E-01
   0.989  0.571E-01  0.190E-01  0.190E-01  0.190E-01
   0.999  0.562E-01  0.187E-01  0.187E-01  0.187E-01
   1.009  0.548E-01  0.183E-01  0.183E-01  0.183E-01
   1.019  0.528E-01  0.176E-01  0.176E-01  0.176E-01
   1.029  0.504E-01  0.168E-01  0.168E-01  0.168E-01
   1.039  0.475E-01  0.158E-01  0.158E-01  0.158E-01
   1.049  0.444E-01  0.148E-01  0.148E-01  0.148E-01
   1.059  0.410E-01  0.137E-01  0.137E-01  0.137E-01
   1.069  0.375E-01  0.125E-01  0.125E-01  0.125E-01
   1.079  0.339E-01  0.113E-01  0.113E-01  0.113E-01
   1.089  0.303E-01  0.101E-01  0.101E-01  0.101E-01
   1.099  0.269E-01  0.895E-02  0.895E-02  0.895E-02
   1.109  0.235E-01  0.784E-02  0.784E-02  0.784E-02
   1.119  0.204E-01  0.679E-02  0.679E-02  0.679E-02
   1.129  0.175E-01  0.582E-02  0.582E-02  0.582E-02
   1.139  0.148E-01  0.494E-02  0.494E-02  0.494E-02
   1.149  0.125E-01  0.415E-02  0.415E-02  0.415E-02
   1.159  0.104E-01  0.345E-02  0.345E-02  0.345E-02
   1.169  0.856E-02  0.285E-02  0.285E-02  0.285E-02
   1.179  0.703E-02  0.234E-02  0.234E-02  0.234E-02
   1.189  0.576E-02  0.192E-02  0.192E-02  0.192E-02
   1.199  0.475E-02  0.158E-02  0.158E-02  0.158E-02
   1.209  0.399E-02  0.133E-02  0.133E-02  0.133E-02
   1.219  0.347E-02  0.116E-02  0.116E-02  0.116E-02
   1.229  0.321E-02  0.107E-02  0.107E-02  0.107E-02
   1.239  0.320E-02  0.107E-02  0.107E-02  0.107E-02
   1.249  0.348E-02  0.116E-02  0.116E-02  0.116E-02
   1.259  0.408E-02  0.136E-02  0.136E-02  0.136E-02
   1.269  0.506E-02  0.169E-02  0.169E-02  0.169E-02
   1.279  0.649E-02  0.216E-02  0.216E-02  0.216E-02
   1.289  0.846E-02  0.282E-02  0.282E-02  0.282E-02
   1.299  0.111E-01  0.370E-02  0.370E-02  0.370E-02
   1.309  0.145E-01  0.483E-02  0.483E-02  0.483E-02
   1.319  0.188E-01  0.628E-02  0.628E-02  0.628E-02
   1.329  0.243E-01  0.810E-02  0.810E-02  0.810E-02
   1.339  0.311E-01  0.104E-01  0.104E-01  0.104E-01
   1.349  0.393E-01  0.131E-01  0.131E-01  0.131E-01
   1.359  0.492E-01  0.164E-01  0.164E-01  0.164E-01
   1.369  0.611E-01  0.204E-01  0.204E-01  0.204E-01
   1.379  0.749E-01  0.250E-01  0.250E-01  0.250E-01
   1.389  0.910E-01  0.303E-01  0.303E-01  0.303E-01
   1.399  0.109E+00  0.365E-01  0.365E-01  0.365E-01
   1.409  0.130E+00  0.434E-01  0.434E-01  0.434E-01
   1.419  0.153E+00  0.510E-01  0.510E-01  0.510E-01
   1.429  0.178E+00  0.594E-01  0.594E-01  0.594E-01
   1.439  0.205E+00  0.685E-01  0.685E-01  0.685E-01
   1.449  0.234E+00  0.781E-01  0.781E-01  0.781E-01
   1.459  0.265E+00  0.882E-01  0.882E-01  0.882E-01
   1.469  0.295E+00  0.985E-01  0.985E-01  0.985E-01
   1.479  0.327E+00  0.109E+00  0.109E+00  0.109E+00
   1.489  0.357E+00  0.119E+00  0.119E+00  0.119E+00
   1.499  0.387E+00  0.129E+00  0.129E+00  0.129E+00
   1.509  0.414E+00  0.138E+00  0.138E+00  0.138E+00
   1.519  0.439E+00  0.146E+00  0.146E+00  0.146E+00
   1.529  0.461E+00  0.154E+00  0.154E+00  0.154E+00
   1.539  0.479E+00  0.160E+00  0.160E+00  0.160E+00
   1.549  0.492E+00  0.164E+00  0.164E+00  0.164E+00
   1.559  0.500E+00  0.167E+00  0.167E+00  0.167E+00
   1.569  0.503E+00  0.168E+00  0.168E+00  0.168E+00
   1.579  0.501E+00  0.167E+00  0.167E+00  0.167E+00
   1.589  0.494E+00  0.165E+00  0.165E+00  0.165E+00
   1.599  0.482E+00  0.161E+00  0.161E+00  0.161E+00
   1.609  0.466E+00  0.155E+00  0.155E+00  0.155E+00
   1.619  0.445E+00  0.148E+00  0.148E+00  0.148E+00
   1.629  0.421E+00  0.140E+00  0.140E+00  0.140E+00
   1.639  0.394E+00  0.131E+00  0.131E+00  0.131E+00
   1.649  0.365E+00  0.122E+00  0.122E+00  0.122E+00
   1.659  0.335E+00  0.112E+00  0.112E+00  0.112E+00
   1.669  0.304E+00  0.101E+00  0.101E+00  0.101E+00
   1.679  0.274E+00  0.914E-01  0.914E-01  0.914E-01
   1.689  0.245E+00  0.816E-01  0.816E-01  0.816E-01
   1.699  0.217E+00  0.722E-01  0.722E-01  0.722E-01
   1.709  0.191E+00  0.636E-01  0.636E-01  0.636E-01
   1.719  0.167E+00  0.557E-01  0.557E-01  0.557E-01
   1.729  0.146E+00  0.488E-01  0.488E-01  0.488E-01
   1.739  0.129E+00  0.429E-01  0.429E-01  0.429E-01
   1.749  0.114E+00  0.381E-01  0.381E-01  0.381E-01
   1.759  0.103E+00  0.344E-01  0.344E-01  0.344E-01
   1.769  0.954E-01  0.318E-01  0.318E-01  0.318E-01
   1.779  0.913E-01  0.304E-01  0.304E-01  0.304E-01
   1.789  0.906E-01  0.302E-01  0.302E-01  0.302E-01
   1.799  0.935E-01  0.312E-01  0.312E-01  0.312E-01
   1.809  0.998E-01  0.333E-01  0.333E-01  0.333E-01
   1.819  0.109E+00  0.365E-01  0.365E-01  0.365E-01
   1.829  0.122E+00  0.407E-01  0.407E-01  0.407E-01
   1.839  0.138E+00  0.460E-01  0.460E-01  0.460E-01
   1.849  0.157E+00  0.522E-01  0.522E-01  0.522E-01
   1.859  0.178E+00  0.592E-01  0.592E-01  0.592E-01
   1.869  0.201E+00  0.669E-01  0.669E-01  0.669E-01
   1.879  0.225E+00  0.751E-01  0.751E-01  0.751E-01
   1.889  0.251E+00  0.837E-01  0.837E-01  0.837E-01
   1.899  0.277E+00  0.924E-01  0.924E-01  0.924E-01
   1.909  0.303E+00  0.101E+00  0.101E+00  0.101E+00
   1.919  0.329E+00  0.110E+00  0.110E+00  0.110E+00
   1.929  0.352E+00  0.117E+00  0.117E+00  0.117E+00
   1.939  0.374E+00  0.125E+00  0.125E+00  0.125E+00
   1.949  0.393E+00  0.131E+00  0.131E+00  0.131E+00
   1.959  0.408E+00  0.136E+00  0.136E+00  0.136E+00
   1.969  0.420E+00  0.140E+00  0.140E+00  0.140E+00
   1.979  0.427E+00  0.142E+00  0.142E+00  0.142E+00
   1.989  0.431E+00  0.144E+00  0.144E+00  0.144E+00
   1.999  0.430E+00  0.143E+00  0.143E+00  0.143E+00
   2.009  0.424E+00  0.141E+00  0.141E+00  0.141E+00
   2.019  0.415E+00  0.138E+00  0.138E+00  0.138E+00
   2.029  0.402E+00  0.134E+00  0.134E+00  0.134E+00
   2.039  0.387E+00  0.129E+00  0.129E+00  0.129E+00
   2.049  0.369E+00  0.123E+00  0.123E+00  0.123E+00
   2.059  0.351E+00  0.117E+00  0.117E+00  0.117E+00
   2.069  0.331E+00  0.110E+00  0.110E+00  0.110E+00
   2.079  0.312E+00  0.104E+00  0.104E+00  0.104E+00
   2.089  0.295E+00  0.983E-01  0.983E-01  0.983E-01
   2.099  0.280E+00  0.932E-01  0.932E-01  0.932E-01
   2.109  0.267E+00  0.892E-01  0.892E-01  0.892E-01
   2.119  0.259E+00  0.864E-01  0.864E-01  0.864E-01
   2.129  0.255E+00  0.852E-01  0.852E-01  0.852E-01
   2.139  0.257E+00  0.857E-01  0.857E-01  0.857E-01
   2.149  0.264E+00  0.881E-01  0.881E-01  0.881E-01
   2.159  0.278E+00  0.925E-01  0.925E-01  0.925E-01
   2.169  0.297E+00  0.992E-01  0.992E-01  0.992E-01
   2.179  0.324E+00  0.108E+00  0.108E+00  0.108E+00
   2.189  0.357E+00  0.119E+00  0.119E+00  0.119E+00
   2.199  0.397E+00  0.132E+00  0.132E+00  0.132E+00
   2.209  0.444E+00  0.148E+00  0.148E+00  0.148E+00
   2.219  0.497E+00  0.166E+00  0.166E+00  0.166E+00
   2.229  0.555E+00  0.185E+00  0.185E+00  0.185E+00
   2.239  0.618E+00  0.206E+00  0.206E+00  0.206E+00
   2.249  0.686E+00  0.229E+00  0.229E+00  0.229E+00
   2.259  0.756E+00  0.252E+00  0.252E+00  0.252E+00
   2.269  0.829E+00  0.276E+00  0.276E+00  0.276E+00
   2.279  0.901E+00  0.300E+00  0.300E+00  0.300E+00
   2.289  0.973E+00  0.324E+00  0.324E+00  0.324E+00
   2.299  0.104E+01  0.348E+00  0.348E+00  0.348E+00
   2.309  0.111E+01  0.369E+00  0.369E+00  0.369E+00
   2.319  0.117E+01  0.389E+00  0.389E+00  0.389E+00
   2.329  0.122E+01  0.407E+00  0.407E+00  0.407E+00
   2.339  0.126E+01  0.422E+00  0.422E+00  0.422E+00
   2.349  0.130E+01  0.433E+00  0.433E+00  0.433E+00
   2.359  0.132E+01  0.441E+00  0.441E+00  0.441E+00
   2.369  0.134E+01  0.445E+00  0.445E+00  0.445E+00
   2.379  0.134E+01  0.445E+00  0.445E+00  0.445E+00
   2.389  0.133E+01  0.442E+00  0.442E+00  0.442E+00
   2.399  0.130E+01  0.434E+00  0.434E+00  0.434E+00
   2.409  0.127E+01  0.423E+00  0.423E+00  0.423E+00
   2.419  0.122E+01  0.408E+00  0.408E+00  0.408E+00
   2.429  0.117E+01  0.390E+00  0.390E+00  0.390E+00
   2.439  0.111E+01  0.370E+00  0.370E+00  0.370E+00
   2.449  0.104E+01  0.347E+00  0.347E+00  0.347E+00
   2.459  0.969E+00  0.323E+00  0.323E+00  0.323E+00
   2.469  0.893E+00  0.298E+00  0.298E+00  0.298E+00
   2.479  0.815E+00  0.272E+00  0.272E+00  0.272E+00
   2.489  0.738E+00  0.246E+00  0.246E+00  0.246E+00
   2.499  0.661E+00  0.220E+00  0.220E+00  0.220E+00
   2.509  0.587E+00  0.196E+00  0.196E+00  0.196E+00
   2.519  0.517E+00  0.172E+00  0.172E+00  0.172E+00
   2.529  0.451E+00  0.150E+00  0.150E+00  0.150E+00
   2.539  0.389E+00  0.130E+00  0.130E+00  0.130E+00
   2.549  0.333E+00  0.111E+00  0.111E+00  0.111E+00
   2.559  0.282E+00  0.940E-01  0.940E-01  0.940E-01
   2.569  0.237E+00  0.789E-01  0.789E-01  0.789E-01
   2.579  0.197E+00  0.657E-01  0.657E-01  0.657E-01
   2.589  0.162E+00  0.542E-01  0.542E-01  0.542E-01
   2.599  0.133E+00  0.443E-01  0.443E-01  0.443E-01
   2.609  0.108E+00  0.359E-01  0.359E-01  0.359E-01
   2.619  0.868E-01  0.289E-01  0.289E-01  0.289E-01
   2.629  0.697E-01  0.232E-01  0.232E-01  0.232E-01
   2.639  0.559E-01  0.186E-01  0.186E-01  0.186E-01
   2.649  0.452E-01  0.151E-01  0.151E-01  0.151E-01
   2.659  0.371E-01  0.124E-01  0.124E-01  0.124E-01
   2.669  0.315E-01  0.105E-01  0.105E-01  0.105E-01
   2.679  0.280E-01  0.933E-02  0.933E-02  0.933E-02
   2.689  0.265E-01  0.884E-02  0.884E-02  0.884E-02
   2.699  0.269E-01  0.898E-02  0.898E-02  0.898E-02
   2.709  0.292E-01  0.972E-02  0.972E-02  0.972E-02
   2.719  0.332E-01  0.111E-01  0.111E-01  0.111E-01
   2.729  0.391E-01  0.130E-01  0.130E-01  0.130E-01
   2.739  0.468E-01  0.156E-01  0.156E-01  0.156E-01
   2.749  0.564E-01  0.188E-01  0.188E-01  0.188E-01
   2.759  0.681E-01  0.227E-01  0.227E-01  0.227E-01
   2.769  0.818E-01  0.273E-01  0.273E-01  0.273E-01
   2.779  0.975E-01  0.325E-01  0.325E-01  0.325E-01
   2.789  0.115E+00  0.384E-01  0.384E-01  0.384E-01
   2.799  0.135E+00  0.450E-01  0.450E-01  0.450E-01
   2.809  0.156E+00  0.521E-01  0.521E-01  0.521E-01
   2.819  0.179E+00  0.598E-01  0.598E-01  0.598E-01
   2.829  0.204E+00  0.679E-01  0.679E-01  0.679E-01
   2.839  0.229E+00  0.762E-01  0.762E-01  0.762E-01
   2.849  0.254E+00  0.847E-01  0.847E-01  0.847E-01
   2.859  0.280E+00  0.932E-01  0.932E-01  0.932E-01
   2.869  0.305E+00  0.102E+00  0.102E+00  0.102E+00
   2.879  0.328E+00  0.109E+00  0.109E+00  0.109E+00
   2.889  0.350E+00  0.117E+00  0.117E+00  0.117E+00
   2.899  0.370E+00  0.123E+00  0.123E+00  0.123E+00
   2.909  0.387E+00  0.129E+00  0.129E+00  0.129E+00
   2.919  0.402E+00  0.134E+00  0.134E+00  0.134E+00
   2.929  0.413E+00  0.138E+00  0.138E+00  0.138E+00
   2.939  0.421E+00  0.140E+00  0.140E+00  0.140E+00
   2.949  0.426E+00  0.142E+00  0.142E+00  0.142E+00
   2.959  0.429E+00  0.143E+00  0.143E+00  0.143E+00
   2.969  0.430E+00  0.143E+00  0.143E+00  0.143E+00
   2.979  0.429E+00  0.143E+00  0.143E+00  0.143E+00
   2.989  0.427E+00  0.142E+00  0.142E+00  0.142E+00
   2.999  0.425E+00  0.142E+00  0.142E+00  0.142E+00
   3.009  0.424E+00  0.141E+00  0.141E+00  0.141E+00
   3.019  0.426E+00  0.142E+00  0.142E+00  0.142E+00
   3.029  0.429E+00  0.143E+00  0.143E+00  0.143E+00
   3.039  0.437E+00  0.146E+00  0.146E+00  0.146E+00
   3.049  0.448E+00  0.149E+00  0.149E+00  0.149E+00
   3.059  0.465E+00  0.155E+00  0.155E+00  0.155E+00
   3.069  0.486E+00  0.162E+00  0.162E+00  0.162E+00
   3.079  0.512E+00  0.171E+00  0.171E+00  0.171E+00
   3.089  0.543E+00  0.181E+00  0.181E+00  0.181E+00
   3.099  0.578E+00  0.193E+00  0.193E+00  0.193E+00
   3.109  0.617E+00  0.206E+00  0.206E+00  0.206E+00
   3.119  0.659E+00  0.220E+00  0.220E+00  0.220E+00
   3.129  0.702E+00  0.234E+00  0.234E+00  0.234E+00
   3.139  0.746E+00  0.249E+00  0.249E+00  0.249E+00
   3.149  0.789E+00  0.263E+00  0.263E+00  0.263E+00
   3.159  0.829E+00  0.276E+00  0.276E+00  0.276E+00
   3.169  0.867E+00  0.289E+00  0.289E+00  0.289E+00
   3.179  0.899E+00  0.300E+00  0.300E+00  0.300E+00
   3.189  0.925E+00  0.308E+00  0.308E+00  0.308E+00
   3.199  0.945E+00  0.315E+00  0.315E+00  0.315E+00
   3.209  0.958E+00  0.319E+00  0.319E+00  0.319E+00
   3.219  0.963E+00  0.321E+00  0.321E+00  0.321E+00
   3.229  0.960E+00  0.320E+00  0.320E+00  0.320E+00
   3.239  0.951E+00  0.317E+00  0.317E+00  0.317E+00
   3.249  0.935E+00  0.312E+00  0.312E+00  0.312E+00
   3.259  0.913E+00  0.304E+00  0.304E+00  0.304E+00
   3.269  0.887E+00  0.296E+00  0.296E+00  0.296E+00
   3.279  0.858E+00  0.286E+00  0.286E+00  0.286E+00
   3.289  0.827E+00  0.276E+00  0.276E+00  0.276E+00
   3.299  0.796E+00  0.265E+00  0.265E+00  0.265E+00
   3.309  0.765E+00  0.255E+00  0.255E+00  0.255E+00
   3.319  0.736E+00  0.245E+00  0.245E+00  0.245E+00
   3.329  0.711E+00  0.237E+00  0.237E+00  0.237E+00
   3.339  0.689E+00  0.230E+00  0.230E+00  0.230E+00
   3.349  0.672E+00  0.224E+00  0.224E+00  0.224E+00
   3.359  0.660E+00  0.220E+00  0.220E+00  0.220E+00
   3.369  0.653E+00  0.218E+00  0.218E+00  0.218E+00
   3.379  0.651E+00  0.217E+00  0.217E+00  0.217E+00
   3.389  0.654E+00  0.218E+00  0.218E+00  0.218E+00
   3.399  0.661E+00  0.220E+00  0.220E+00  0.220E+00
   3.409  0.672E+00  0.224E+00  0.224E+00  0.224E+00
   3.419  0.686E+00  0.229E+00  0.229E+00  0.229E+00
   3.429  0.703E+00  0.234E+00  0.234E+00  0.234E+00
   3.439  0.722E+00  0.241E+00  0.241E+00  0.241E+00
   3.449  0.743E+00  0.248E+00  0.248E+00  0.248E+00
   3.459  0.764E+00  0.255E+00  0.255E+00  0.255E+00
   3.469  0.785E+00  0.262E+00  0.262E+00  0.262E+00
   3.479  0.806E+00  0.269E+00  0.269E+00  0.269E+00
   3.489  0.827E+00  0.276E+00  0.276E+00  0.276E+00
   3.499  0.847E+00  0.282E+00  0.282E+00  0.282E+00
   3.509  0.865E+00  0.288E+00  0.288E+00  0.288E+00
   3.519  0.882E+00  0.294E+00  0.294E+00  0.294E+00
   3.529  0.898E+00  0.299E+00  0.299E+00  0.299E+00
   3.539  0.912E+00  0.304E+00  0.304E+00  0.304E+00
   3.549  0.924E+00  0.308E+00  0.308E+00  0.308E+00
   3.559  0.933E+00  0.311E+00  0.311E+00  0.311E+00
   3.569  0.940E+00  0.313E+00  0.313E+00  0.313E+00
   3.579  0.945E+00  0.315E+00  0.315E+00  0.315E+00
   3.589  0.947E+00  0.316E+00  0.316E+00  0.316E+00
   3.599  0.946E+00  0.315E+00  0.315E+00  0.315E+00
   3.609  0.942E+00  0.314E+00  0.314E+00  0.314E+00
   3.619  0.935E+00  0.312E+00  0.312E+00  0.312E+00
   3.629  0.924E+00  0.308E+00  0.308E+00  0.308E+00
   3.639  0.911E+00  0.304E+00  0.304E+00  0.304E+00
   3.649  0.894E+00  0.298E+00  0.298E+00  0.298E+00
   3.659  0.875E+00  0.292E+00  0.292E+00  0.292E+00
   3.669  0.853E+00  0.284E+00  0.284E+00  0.284E+00
   3.679  0.828E+00  0.276E+00  0.276E+00  0.276E+00
   3.689  0.802E+00  0.267E+00  0.267E+00  0.267E+00
   3.699  0.774E+00  0.258E+00  0.258E+00  0.258E+00
   3.709  0.746E+00  0.249E+00  0.249E+00  0.249E+00
   3.719  0.717E+00  0.239E+00  0.239E+00  0.239E+00
   3.729  0.688E+00  0.229E+00  0.229E+00  0.229E+00
   3.739  0.661E+00  0.220E+00  0.220E+00  0.220E+00
   3.749  0.634E+00  0.211E+00  0.211E+00  0.211E+00
   3.759  0.611E+00  0.204E+00  0.204E+00  0.204E+00
   3.769  0.590E+00  0.197E+00  0.197E+00  0.197E+00
   3.779  0.572E+00  0.191E+00  0.191E+00  0.191E+00
   3.789  0.558E+00  0.186E+00  0.186E+00  0.186E+00
   3.799  0.547E+00  0.182E+00  0.182E+00  0.182E+00
   3.809  0.541E+00  0.180E+00  0.180E+00  0.180E+00
   3.819  0.539E+00  0.180E+00  0.180E+00  0.180E+00
   3.829  0.541E+00  0.180E+00  0.180E+00  0.180E+00
   3.839  0.546E+00  0.182E+00  0.182E+00  0.182E+00
   3.849  0.554E+00  0.185E+00  0.185E+00  0.185E+00
   3.859  0.564E+00  0.188E+00  0.188E+00  0.188E+00
   3.869  0.576E+00  0.192E+00  0.192E+00  0.192E+00
   3.879  0.590E+00  0.197E+00  0.197E+00  0.197E+00
   3.889  0.603E+00  0.201E+00  0.201E+00  0.201E+00
   3.899  0.616E+00  0.205E+00  0.205E+00  0.205E+00
   3.909  0.628E+00  0.209E+00  0.209E+00  0.209E+00
   3.919  0.639E+00  0.213E+00  0.213E+00  0.213E+00
   3.929  0.646E+00  0.215E+00  0.215E+00  0.215E+00
   3.939  0.651E+00  0.217E+00  0.217E+00  0.217E+00
   3.949  0.653E+00  0.218E+00  0.218E+00  0.218E+00
   3.959  0.652E+00  0.217E+00  0.217E+00  0.217E+00
   3.969  0.648E+00  0.216E+00  0.216E+00  0.216E+00
   3.979  0.640E+00  0.213E+00  0.213E+00  0.213E+00
   3.989  0.630E+00  0.210E+00  0.210E+00  0.210E+00
   3.999  0.619E+00  0.206E+00  0.206E+00  0.206E+00
   4.009  0.606E+00  0.202E+00  0.202E+00  0.202E+00
   4.019  0.593E+00  0.198E+00  0.198E+00  0.198E+00
   4.029  0.581E+00  0.194E+00  0.194E+00  0.194E+00
   4.039  0.570E+00  0.190E+00  0.190E+00  0.190E+00
   4.049  0.562E+00  0.187E+00  0.187E+00  0.187E+00
   4.059  0.557E+00  0.186E+00  0.186E+00  0.186E+00
   4.069  0.556E+00  0.185E+00  0.185E+00  0.185E+00
   4.079  0.560E+00  0.187E+00  0.187E+00  0.187E+00
   4.089  0.570E+00  0.190E+00  0.190E+00  0.190E+00
   4.099  0.584E+00  0.195E+00  0.195E+00  0.195E+00
   4.109  0.604E+00  0.201E+00  0.201E+00  0.201E+00
   4.119  0.629E+00  0.210E+00  0.210E+00  0.210E+00
   4.129  0.658E+00  0.219E+00  0.219E+00  0.219E+00
   4.139  0.691E+00  0.230E+00  0.230E+00  0.230E+00
   4.149  0.726E+00  0.242E+00  0.242E+00  0.242E+00
   4.159  0.761E+00  0.254E+00  0.254E+00  0.254E+00
   4.169  0.797E+00  0.266E+00  0.266E+00  0.266E+00
   4.179  0.830E+00  0.277E+00  0.277E+00  0.277E+00
   4.189  0.859E+00  0.286E+00  0.286E+00  0.286E+00
   4.199  0.884E+00  0.295E+00  0.295E+00  0.295E+00
   4.209  0.903E+00  0.301E+00  0.301E+00  0.301E+00
   4.219  0.915E+00  0.305E+00  0.305E+00  0.305E+00
   4.229  0.918E+00  0.306E+00  0.306E+00  0.306E+00
   4.239  0.914E+00  0.305E+00  0.305E+00  0.305E+00
   4.249  0.900E+00  0.300E+00  0.300E+00  0.300E+00
   4.259  0.879E+00  0.293E+00  0.293E+00  0.293E+00
   4.269  0.849E+00  0.283E+00  0.283E+00  0.283E+00
   4.279  0.813E+00  0.271E+00  0.271E+00  0.271E+00
   4.289  0.769E+00  0.256E+00  0.256E+00  0.256E+00
   4.299  0.721E+00  0.240E+00  0.240E+00  0.240E+00
   4.309  0.669E+00  0.223E+00  0.223E+00  0.223E+00
   4.319  0.614E+00  0.205E+00  0.205E+00  0.205E+00
   4.329  0.558E+00  0.186E+00  0.186E+00  0.186E+00
   4.339  0.502E+00  0.167E+00  0.167E+00  0.167E+00
   4.349  0.447E+00  0.149E+00  0.149E+00  0.149E+00
   4.359  0.394E+00  0.131E+00  0.131E+00  0.131E+00
   4.369  0.344E+00  0.115E+00  0.115E+00  0.115E+00
   4.379  0.297E+00  0.991E-01  0.991E-01  0.991E-01
   4.389  0.255E+00  0.849E-01  0.849E-01  0.849E-01
   4.399  0.217E+00  0.722E-01  0.722E-01  0.722E-01
   4.409  0.183E+00  0.611E-01  0.611E-01  0.611E-01
   4.419  0.154E+00  0.515E-01  0.515E-01  0.515E-01
   4.429  0.130E+00  0.434E-01  0.434E-01  0.434E-01
   4.439  0.111E+00  0.369E-01  0.369E-01  0.369E-01
   4.449  0.958E-01  0.319E-01  0.319E-01  0.319E-01
   4.459  0.852E-01  0.284E-01  0.284E-01  0.284E-01
   4.469  0.786E-01  0.262E-01  0.262E-01  0.262E-01
   4.479  0.762E-01  0.254E-01  0.254E-01  0.254E-01
   4.489  0.776E-01  0.259E-01  0.259E-01  0.259E-01
   4.499  0.829E-01  0.276E-01  0.276E-01  0.276E-01
   4.509  0.919E-01  0.306E-01  0.306E-01  0.306E-01
   4.519  0.105E+00  0.349E-01  0.349E-01  0.349E-01
   4.529  0.121E+00  0.403E-01  0.403E-01  0.403E-01
   4.539  0.141E+00  0.469E-01  0.469E-01  0.469E-01
   4.549  0.164E+00  0.547E-01  0.547E-01  0.547E-01
   4.559  0.191E+00  0.637E-01  0.637E-01  0.637E-01
   4.569  0.221E+00  0.736E-01  0.736E-01  0.736E-01
   4.579  0.254E+00  0.846E-01  0.846E-01  0.846E-01
   4.589  0.289E+00  0.964E-01  0.964E-01  0.964E-01
   4.599  0.327E+00  0.109E+00  0.109E+00  0.109E+00
   4.609  0.366E+00  0.122E+00  0.122E+00  0.122E+00
   4.619  0.407E+00  0.136E+00  0.136E+00  0.136E+00
   4.629  0.447E+00  0.149E+00  0.149E+00  0.149E+00
   4.639  0.488E+00  0.163E+00  0.163E+00  0.163E+00
   4.649  0.528E+00  0.176E+00  0.176E+00  0.176E+00
   4.659  0.566E+00  0.189E+00  0.189E+00  0.189E+00
   4.669  0.602E+00  0.201E+00  0.201E+00  0.201E+00
   4.679  0.635E+00  0.212E+00  0.212E+00  0.212E+00
   4.689  0.664E+00  0.221E+00  0.221E+00  0.221E+00
   4.699  0.689E+00  0.230E+00  0.230E+00  0.230E+00
   4.709  0.709E+00  0.236E+00  0.236E+00  0.236E+00
   4.719  0.724E+00  0.241E+00  0.241E+00  0.241E+00
   4.729  0.735E+00  0.245E+00  0.245E+00  0.245E+00
   4.739  0.740E+00  0.247E+00  0.247E+00  0.247E+00
   4.749  0.739E+00  0.246E+00  0.246E+00  0.246E+00
   4.759  0.734E+00  0.245E+00  0.245E+00  0.245E+00
   4.769  0.725E+00  0.242E+00  0.242E+00  0.242E+00
   4.779  0.711E+00  0.237E+00  0.237E+00  0.237E+00
   4.789  0.694E+00  0.231E+00  0.231E+00  0.231E+00
   4.799  0.673E+00  0.224E+00  0.224E+00  0.224E+00
   4.809  0.651E+00  0.217E+00  0.217E+00  0.217E+00
   4.819  0.627E+00  0.209E+00  0.209E+00  0.209E+00
   4.829  0.602E+00  0.201E+00  0.201E+00  0.201E+00
   4.839  0.577E+00  0.192E+00  0.192E+00  0.192E+00
   4.849  0.553E+00  0.184E+00  0.184E+00  0.184E+00
   4.859  0.529E+00  0.176E+00  0.176E+00  0.176E+00
   4.869  0.508E+00  0.169E+00  0.169E+00  0.169E+00
   4.879  0.487E+00  0.162E+00  0.162E+00  0.162E+00
   4.889  0.469E+00  0.156E+00  0.156E+00  0.156E+00
   4.899  0.453E+00  0.151E+00  0.151E+00  0.151E+00
   4.909  0.439E+00  0.146E+00  0.146E+00  0.146E+00
   4.919  0.426E+00  0.142E+00  0.142E+00  0.142E+00
   4.929  0.415E+00  0.138E+00  0.138E+00  0.138E+00
   4.939  0.405E+00  0.135E+00  0.135E+00  0.135E+00
   4.949  0.396E+00  0.132E+00  0.132E+00  0.132E+00
   4.959  0.387E+00  0.129E+00  0.129E+00  0.129E+00
   4.969  0.377E+00  0.126E+00  0.126E+00  0.126E+00
   4.979  0.367E+00  0.122E+00  0.122E+00  0.122E+00
   4.989  0.356E+00  0.119E+00  0.119E+00  0.119E+00
   4.999  0.344E+00  0.115E+00  0.115E+00  0.115E+00
   5.009  0.330E+00  0.110E+00  0.110E+00  0.110E+00
   5.019  0.315E+00  0.105E+00  0.105E+00  0.105E+00
   5.029  0.298E+00  0.994E-01  0.994E-01  0.994E-01
   5.039  0.280E+00  0.934E-01  0.934E-01  0.934E-01
   5.049  0.261E+00  0.871E-01  0.871E-01  0.871E-01
   5.059  0.241E+00  0.805E-01  0.805E-01  0.805E-01
   5.069  0.221E+00  0.737E-01  0.737E-01  0.737E-01
   5.079  0.201E+00  0.669E-01  0.669E-01  0.669E-01
   5.089  0.180E+00  0.601E-01  0.601E-01  0.601E-01
   5.099  0.161E+00  0.536E-01  0.536E-01  0.536E-01
   5.109  0.142E+00  0.473E-01  0.473E-01  0.473E-01
   5.119  0.124E+00  0.414E-01  0.414E-01  0.414E-01
   5.129  0.108E+00  0.360E-01  0.360E-01  0.360E-01
   5.139  0.934E-01  0.311E-01  0.311E-01  0.311E-01
   5.149  0.805E-01  0.268E-01  0.268E-01  0.268E-01
   5.159  0.693E-01  0.231E-01  0.231E-01  0.231E-01
   5.169  0.601E-01  0.200E-01  0.200E-01  0.200E-01
   5.179  0.528E-01  0.176E-01  0.176E-01  0.176E-01
   5.189  0.475E-01  0.158E-01  0.158E-01  0.158E-01
   5.199  0.442E-01  0.147E-01  0.147E-01  0.147E-01
   5.209  0.428E-01  0.143E-01  0.143E-01  0.143E-01
   5.219  0.433E-01  0.144E-01  0.144E-01  0.144E-01
   5.229  0.458E-01  0.153E-01  0.153E-01  0.153E-01
   5.239  0.502E-01  0.167E-01  0.167E-01  0.167E-01
   5.249  0.566E-01  0.189E-01  0.189E-01  0.189E-01
   5.259  0.649E-01  0.216E-01  0.216E-01  0.216E-01
   5.269  0.752E-01  0.251E-01  0.251E-01  0.251E-01
   5.279  0.873E-01  0.291E-01  0.291E-01  0.291E-01
   5.289  0.101E+00  0.337E-01  0.337E-01  0.337E-01
   5.299  0.117E+00  0.390E-01  0.390E-01  0.390E-01
   5.309  0.134E+00  0.448E-01  0.448E-01  0.448E-01
   5.319  0.153E+00  0.511E-01  0.511E-01  0.511E-01
   5.329  0.173E+00  0.578E-01  0.578E-01  0.578E-01
   5.339  0.195E+00  0.649E-01  0.649E-01  0.649E-01
   5.349  0.217E+00  0.724E-01  0.724E-01  0.724E-01
   5.359  0.240E+00  0.800E-01  0.800E-01  0.800E-01
   5.369  0.263E+00  0.877E-01  0.877E-01  0.877E-01
   5.379  0.286E+00  0.955E-01  0.955E-01  0.955E-01
   5.389  0.309E+00  0.103E+00  0.103E+00  0.103E+00
   5.399  0.331E+00  0.110E+00  0.110E+00  0.110E+00
   5.409  0.353E+00  0.118E+00  0.118E+00  0.118E+00
   5.419  0.372E+00  0.124E+00  0.124E+00  0.124E+00
   5.429  0.390E+00  0.130E+00  0.130E+00  0.130E+00
   5.439  0.406E+00  0.135E+00  0.135E+00  0.135E+00
   5.449  0.419E+00  0.140E+00  0.140E+00  0.140E+00
   5.459  0.430E+00  0.143E+00  0.143E+00  0.143E+00
   5.469  0.438E+00  0.146E+00  0.146E+00  0.146E+00
   5.479  0.443E+00  0.148E+00  0.148E+00  0.148E+00
   5.489  0.445E+00  0.148E+00  0.148E+00  0.148E+00
   5.499  0.444E+00  0.148E+00  0.148E+00  0.148E+00
   5.509  0.439E+00  0.146E+00  0.146E+00  0.146E+00
   5.519  0.431E+00  0.144E+00  0.144E+00  0.144E+00
   5.529  0.420E+00  0.140E+00  0.140E+00  0.140E+00
   5.539  0.407E+00  0.136E+00  0.136E+00  0.136E+00
   5.549  0.390E+00  0.130E+00  0.130E+00  0.130E+00
   5.559  0.371E+00  0.124E+00  0.124E+00  0.124E+00
   5.569  0.351E+00  0.117E+00  0.117E+00  0.117E+00
   5.579  0.328E+00  0.109E+00  0.109E+00  0.109E+00
   5.589  0.305E+00  0.102E+00  0.102E+00  0.102E+00
   5.599  0.280E+00  0.934E-01  0.934E-01  0.934E-01
   5.609  0.255E+00  0.851E-01  0.851E-01  0.851E-01
   5.619  0.231E+00  0.769E-01  0.769E-01  0.769E-01
   5.629  0.207E+00  0.689E-01  0.689E-01  0.689E-01
   5.639  0.183E+00  0.611E-01  0.611E-01  0.611E-01
   5.649  0.161E+00  0.537E-01  0.537E-01  0.537E-01
   5.659  0.140E+00  0.467E-01  0.467E-01  0.467E-01
   5.669  0.121E+00  0.403E-01  0.403E-01  0.403E-01
   5.679  0.103E+00  0.344E-01  0.344E-01  0.344E-01
   5.689  0.874E-01  0.291E-01  0.291E-01  0.291E-01
   5.699  0.733E-01  0.244E-01  0.244E-01  0.244E-01
   5.709  0.611E-01  0.204E-01  0.204E-01  0.204E-01
   5.719  0.505E-01  0.168E-01  0.168E-01  0.168E-01
   5.729  0.416E-01  0.139E-01  0.139E-01  0.139E-01
   5.739  0.343E-01  0.114E-01  0.114E-01  0.114E-01
   5.749  0.283E-01  0.944E-02  0.944E-02  0.944E-02
   5.759  0.237E-01  0.790E-02  0.790E-02  0.790E-02
   5.769  0.202E-01  0.674E-02  0.674E-02  0.674E-02
   5.779  0.178E-01  0.594E-02  0.594E-02  0.594E-02
   5.789  0.163E-01  0.545E-02  0.545E-02  0.545E-02
   5.799  0.157E-01  0.524E-02  0.524E-02  0.524E-02
   5.809  0.159E-01  0.529E-02  0.529E-02  0.529E-02
   5.819  0.167E-01  0.556E-02  0.556E-02  0.556E-02
   5.829  0.181E-01  0.603E-02  0.603E-02  0.603E-02
   5.839  0.200E-01  0.666E-02  0.666E-02  0.666E-02
   5.849  0.223E-01  0.745E-02  0.745E-02  0.745E-02
   5.859  0.251E-01  0.835E-02  0.835E-02  0.835E-02
   5.869  0.281E-01  0.935E-02  0.935E-02  0.935E-02
   5.879  0.313E-01  0.104E-01  0.104E-01  0.104E-01
   5.889  0.346E-01  0.115E-01  0.115E-01  0.115E-01
   5.899  0.380E-01  0.127E-01  0.127E-01  0.127E-01
   5.909  0.413E-01  0.138E-01  0.138E-01  0.138E-01
   5.919  0.444E-01  0.148E-01  0.148E-01  0.148E-01
   5.929  0.473E-01  0.158E-01  0.158E-01  0.158E-01
   5.939  0.499E-01  0.166E-01  0.166E-01  0.166E-01
   5.949  0.520E-01  0.173E-01  0.173E-01  0.173E-01
   5.959  0.537E-01  0.179E-01  0.179E-01  0.179E-01
   5.969  0.548E-01  0.183E-01  0.183E-01  0.183E-01
   5.979  0.554E-01  0.185E-01  0.185E-01  0.185E-01
   5.989  0.553E-01  0.184E-01  0.184E-01  0.184E-01
   5.999  0.547E-01  0.182E-01  0.182E-01  0.182E-01
   6.009  0.535E-01  0.178E-01  0.178E-01  0.178E-01
   6.019  0.517E-01  0.172E-01  0.172E-01  0.172E-01
   6.029  0.495E-01  0.165E-01  0.165E-01  0.165E-01
   6.039  0.469E-01  0.156E-01  0.156E-01  0.156E-01
   6.049  0.439E-01  0.146E-01  0.146E-01  0.146E-01
   6.059  0.407E-01  0.136E-01  0.136E-01  0.136E-01
   6.069  0.373E-01  0.124E-01  0.124E-01  0.124E-01
   6.079  0.338E-01  0.113E-01  0.113E-01  0.113E-01
   6.089  0.303E-01  0.101E-01  0.101E-01  0.101E-01
   6.099  0.269E-01  0.896E-02  0.896E-02  0.896E-02
   6.109  0.236E-01  0.787E-02  0.787E-02  0.787E-02
   6.119  0.205E-01  0.683E-02  0.683E-02  0.683E-02
   6.129  0.176E-01  0.587E-02  0.587E-02  0.587E-02
   6.139  0.150E-01  0.499E-02  0.499E-02  0.499E-02
   6.149  0.126E-01  0.419E-02  0.419E-02  0.419E-02
   6.159  0.105E-01  0.349E-02  0.349E-02  0.349E-02
   6.169  0.861E-02  0.287E-02  0.287E-02  0.287E-02
   6.179  0.701E-02  0.234E-02  0.234E-02  0.234E-02
   6.189  0.565E-02  0.188E-02  0.188E-02  0.188E-02
   6.199  0.451E-02  0.150E-02  0.150E-02  0.150E-02
   6.209  0.356E-02  0.119E-02  0.119E-02  0.119E-02
   6.219  0.279E-02  0.932E-03  0.932E-03  0.932E-03
   6.229  0.218E-02  0.728E-03  0.728E-03  0.728E-03
   6.239  0.171E-02  0.569E-03  0.569E-03  0.569E-03
   6.249  0.135E-02  0.450E-03  0.450E-03  0.450E-03
   6.259  0.110E-02  0.367E-03  0.367E-03  0.367E-03
   6.269  0.944E-03  0.315E-03  0.315E-03  0.315E-03
   6.279  0.879E-03  0.293E-03  0.293E-03  0.293E-03
   6.289  0.902E-03  0.301E-03  0.301E-03  0.301E-03
   6.299  0.102E-02  0.340E-03  0.340E-03  0.340E-03
   6.309  0.124E-02  0.413E-03  0.413E-03  0.413E-03
   6.319  0.157E-02  0.525E-03  0.525E-03  0.525E-03
   6.329  0.205E-02  0.683E-03  0.683E-03  0.683E-03
   6.339  0.269E-02  0.897E-03  0.897E-03  0.897E-03
   6.349  0.353E-02  0.118E-02  0.118E-02  0.118E-02
   6.359  0.461E-02  0.154E-02  0.154E-02  0.154E-02
   6.369  0.596E-02  0.199E-02  0.199E-02  0.199E-02
   6.379  0.765E-02  0.255E-02  0.255E-02  0.255E-02
   6.389  0.971E-02  0.324E-02  0.324E-02  0.324E-02
   6.399  0.122E-01  0.407E-02  0.407E-02  0.407E-02
   6.409  0.152E-01  0.506E-02  0.506E-02  0.506E-02
   6.419  0.187E-01  0.623E-02  0.623E-02  0.623E-02
   6.429  0.227E-01  0.758E-02  0.758E-02  0.758E-02
   6.439  0.274E-01  0.913E-02  0.913E-02  0.913E-02
   6.449  0.327E-01  0.109E-01  0.109E-01  0.109E-01
   6.459  0.385E-01  0.128E-01  0.128E-01  0.128E-01
   6.469  0.449E-01  0.150E-01  0.150E-01  0.150E-01
   6.479  0.519E-01  0.173E-01  0.173E-01  0.173E-01
   6.489  0.592E-01  0.197E-01  0.197E-01  0.197E-01
   6.499  0.669E-01  0.223E-01  0.223E-01  0.223E-01
   6.509  0.748E-01  0.249E-01  0.249E-01  0.249E-01
   6.519  0.827E-01  0.276E-01  0.276E-01  0.276E-01
   6.529  0.905E-01  0.302E-01  0.302E-01  0.302E-01
   6.539  0.980E-01  0.327E-01  0.327E-01  0.327E-01
   6.549  0.105E+00  0.350E-01  0.350E-01  0.350E-01
   6.559  0.111E+00  0.371E-01  0.371E-01  0.371E-01
   6.569  0.117E+00  0.389E-01  0.389E-01  0.389E-01
   6.579  0.121E+00  0.404E-01  0.404E-01  0.404E-01
   6.589  0.124E+00  0.414E-01  0.414E-01  0.414E-01
   6.599  0.126E+00  0.421E-01  0.421E-01  0.421E-01
   6.609  0.127E+00  0.424E-01  0.424E-01  0.424E-01
   6.619  0.126E+00  0.422E-01  0.422E-01  0.422E-01
   6.629  0.125E+00  0.416E-01  0.416E-01  0.416E-01
   6.639  0.122E+00  0.406E-01  0.406E-01  0.406E-01
   6.649  0.118E+00  0.393E-01  0.393E-01  0.393E-01
   6.659  0.113E+00  0.377E-01  0.377E-01  0.377E-01
   6.669  0.108E+00  0.358E-01  0.358E-01  0.358E-01
   6.679  0.102E+00  0.339E-01  0.339E-01  0.339E-01
   6.689  0.958E-01  0.319E-01  0.319E-01  0.319E-01
   6.699  0.901E-01  0.300E-01  0.300E-01  0.300E-01
   6.709  0.848E-01  0.283E-01  0.283E-01  0.283E-01
   6.719  0.802E-01  0.267E-01  0.267E-01  0.267E-01
   6.729  0.765E-01  0.255E-01  0.255E-01  0.255E-01
   6.739  0.740E-01  0.247E-01  0.247E-01  0.247E-01
   6.749  0.730E-01  0.243E-01  0.243E-01  0.243E-01
   6.759  0.735E-01  0.245E-01  0.245E-01  0.245E-01
   6.769  0.757E-01  0.252E-01  0.252E-01  0.252E-01
   6.779  0.796E-01  0.265E-01  0.265E-01  0.265E-01
   6.789  0.854E-01  0.285E-01  0.285E-01  0.285E-01
   6.799  0.930E-01  0.310E-01  0.310E-01  0.310E-01
   6.809  0.102E+00  0.341E-01  0.341E-01  0.341E-01
   6.819  0.113E+00  0.377E-01  0.377E-01  0.377E-01
   6.829  0.125E+00  0.418E-01  0.418E-01  0.418E-01
   6.839  0.139E+00  0.462E-01  0.462E-01  0.462E-01
   6.849  0.153E+00  0.509E-01  0.509E-01  0.509E-01
   6.859  0.167E+00  0.558E-01  0.558E-01  0.558E-01
   6.869  0.182E+00  0.607E-01  0.607E-01  0.607E-01
   6.879  0.196E+00  0.654E-01  0.654E-01  0.654E-01
   6.889  0.210E+00  0.699E-01  0.699E-01  0.699E-01
   6.899  0.222E+00  0.740E-01  0.740E-01  0.740E-01
   6.909  0.233E+00  0.775E-01  0.775E-01  0.775E-01
   6.919  0.241E+00  0.804E-01  0.804E-01  0.804E-01
   6.929  0.248E+00  0.825E-01  0.825E-01  0.825E-01
   6.939  0.251E+00  0.838E-01  0.838E-01  0.838E-01
   6.949  0.253E+00  0.842E-01  0.842E-01  0.842E-01
   6.959  0.251E+00  0.838E-01  0.838E-01  0.838E-01
   6.969  0.247E+00  0.824E-01  0.824E-01  0.824E-01
   6.979  0.241E+00  0.802E-01  0.802E-01  0.802E-01
   6.989  0.232E+00  0.772E-01  0.772E-01  0.772E-01
   6.999  0.221E+00  0.735E-01  0.735E-01  0.735E-01
   7.009  0.208E+00  0.693E-01  0.693E-01  0.693E-01
   7.019  0.194E+00  0.646E-01  0.646E-01  0.646E-01
   7.029  0.179E+00  0.596E-01  0.596E-01  0.596E-01
   7.039  0.163E+00  0.544E-01  0.544E-01  0.544E-01
   7.049  0.147E+00  0.491E-01  0.491E-01  0.491E-01
   7.059  0.131E+00  0.438E-01  0.438E-01  0.438E-01
   7.069  0.116E+00  0.387E-01  0.387E-01  0.387E-01
   7.079  0.102E+00  0.339E-01  0.339E-01  0.339E-01
   7.089  0.880E-01  0.293E-01  0.293E-01  0.293E-01
   7.099  0.755E-01  0.252E-01  0.252E-01  0.252E-01
   7.109  0.642E-01  0.214E-01  0.214E-01  0.214E-01
   7.119  0.541E-01  0.180E-01  0.180E-01  0.180E-01
   7.129  0.454E-01  0.151E-01  0.151E-01  0.151E-01
   7.139  0.379E-01  0.126E-01  0.126E-01  0.126E-01
   7.149  0.317E-01  0.106E-01  0.106E-01  0.106E-01
   7.159  0.268E-01  0.892E-02  0.892E-02  0.892E-02
   7.169  0.230E-01  0.765E-02  0.765E-02  0.765E-02
   7.179  0.202E-01  0.675E-02  0.675E-02  0.675E-02
   7.189  0.185E-01  0.618E-02  0.618E-02  0.618E-02
   7.199  0.178E-01  0.595E-02  0.595E-02  0.595E-02
   7.209  0.181E-01  0.602E-02  0.602E-02  0.602E-02
   7.219  0.192E-01  0.639E-02  0.639E-02  0.639E-02
   7.229  0.212E-01  0.705E-02  0.705E-02  0.705E-02
   7.239  0.240E-01  0.800E-02  0.800E-02  0.800E-02
   7.249  0.277E-01  0.922E-02  0.922E-02  0.922E-02
   7.259  0.322E-01  0.107E-01  0.107E-01  0.107E-01
   7.269  0.375E-01  0.125E-01  0.125E-01  0.125E-01
   7.279  0.436E-01  0.145E-01  0.145E-01  0.145E-01
   7.289  0.505E-01  0.168E-01  0.168E-01  0.168E-01
   7.299  0.581E-01  0.194E-01  0.194E-01  0.194E-01
   7.309  0.665E-01  0.222E-01  0.222E-01  0.222E-01
   7.319  0.754E-01  0.251E-01  0.251E-01  0.251E-01
   7.329  0.848E-01  0.283E-01  0.283E-01  0.283E-01
   7.339  0.947E-01  0.316E-01  0.316E-01  0.316E-01
   7.349  0.105E+00  0.350E-01  0.350E-01  0.350E-01
   7.359  0.115E+00  0.384E-01  0.384E-01  0.384E-01
   7.369  0.126E+00  0.419E-01  0.419E-01  0.419E-01
   7.379  0.136E+00  0.453E-01  0.453E-01  0.453E-01
   7.389  0.146E+00  0.486E-01  0.486E-01  0.486E-01
   7.399  0.155E+00  0.517E-01  0.517E-01  0.517E-01
   7.409  0.164E+00  0.547E-01  0.547E-01  0.547E-01
   7.419  0.172E+00  0.575E-01  0.575E-01  0.575E-01
   7.429  0.180E+00  0.600E-01  0.600E-01  0.600E-01
   7.439  0.187E+00  0.623E-01  0.623E-01  0.623E-01
   7.449  0.193E+00  0.642E-01  0.642E-01  0.642E-01
   7.459  0.198E+00  0.659E-01  0.659E-01  0.659E-01
   7.469  0.202E+00  0.673E-01  0.673E-01  0.673E-01
   7.479  0.205E+00  0.684E-01  0.684E-01  0.684E-01
   7.489  0.208E+00  0.692E-01  0.692E-01  0.692E-01
   7.499  0.209E+00  0.698E-01  0.698E-01  0.698E-01
   7.509  0.210E+00  0.701E-01  0.701E-01  0.701E-01
   7.519  0.211E+00  0.702E-01  0.702E-01  0.702E-01
   7.529  0.210E+00  0.701E-01  0.701E-01  0.701E-01
   7.539  0.209E+00  0.697E-01  0.697E-01  0.697E-01
   7.549  0.208E+00  0.692E-01  0.692E-01  0.692E-01
   7.559  0.205E+00  0.684E-01  0.684E-01  0.684E-01
   7.569  0.203E+00  0.675E-01  0.675E-01  0.675E-01
   7.579  0.199E+00  0.665E-01  0.665E-01  0.665E-01
   7.589  0.196E+00  0.653E-01  0.653E-01  0.653E-01
   7.599  0.192E+00  0.640E-01  0.640E-01  0.640E-01
   7.609  0.188E+00  0.628E-01  0.628E-01  0.628E-01
   7.619  0.185E+00  0.616E-01  0.616E-01  0.616E-01
   7.629  0.182E+00  0.606E-01  0.606E-01  0.606E-01
   7.639  0.179E+00  0.598E-01  0.598E-01  0.598E-01
   7.649  0.178E+00  0.593E-01  0.593E-01  0.593E-01
   7.659  0.178E+00  0.594E-01  0.594E-01  0.594E-01
   7.669  0.180E+00  0.600E-01  0.600E-01  0.600E-01
   7.679  0.184E+00  0.614E-01  0.614E-01  0.614E-01
   7.689  0.191E+00  0.636E-01  0.636E-01  0.636E-01
   7.699  0.200E+00  0.667E-01  0.667E-01  0.667E-01
   7.709  0.212E+00  0.707E-01  0.707E-01  0.707E-01
   7.719  0.228E+00  0.758E-01  0.758E-01  0.758E-01
   7.729  0.246E+00  0.820E-01  0.820E-01  0.820E-01
   7.739  0.267E+00  0.891E-01  0.891E-01  0.891E-01
   7.749  0.291E+00  0.971E-01  0.971E-01  0.971E-01
   7.759  0.318E+00  0.106E+00  0.106E+00  0.106E+00
   7.769  0.347E+00  0.116E+00  0.116E+00  0.116E+00
   7.779  0.376E+00  0.125E+00  0.125E+00  0.125E+00
   7.789  0.407E+00  0.136E+00  0.136E+00  0.136E+00
   7.799  0.438E+00  0.146E+00  0.146E+00  0.146E+00
   7.809  0.467E+00  0.156E+00  0.156E+00  0.156E+00
   7.819  0.495E+00  0.165E+00  0.165E+00  0.165E+00
   7.829  0.521E+00  0.174E+00  0.174E+00  0.174E+00
   7.839  0.543E+00  0.181E+00  0.181E+00  0.181E+00
   7.849  0.561E+00  0.187E+00  0.187E+00  0.187E+00
   7.859  0.575E+00  0.192E+00  0.192E+00  0.192E+00
   7.869  0.583E+00  0.194E+00  0.194E+00  0.194E+00
   7.879  0.587E+00  0.196E+00  0.196E+00  0.196E+00
   7.889  0.585E+00  0.195E+00  0.195E+00  0.195E+00
   7.899  0.577E+00  0.192E+00  0.192E+00  0.192E+00
   7.909  0.564E+00  0.188E+00  0.188E+00  0.188E+00
   7.919  0.547E+00  0.182E+00  0.182E+00  0.182E+00
   7.929  0.525E+00  0.175E+00  0.175E+00  0.175E+00
   7.939  0.499E+00  0.166E+00  0.166E+00  0.166E+00
   7.949  0.471E+00  0.157E+00  0.157E+00  0.157E+00
   7.959  0.440E+00  0.147E+00  0.147E+00  0.147E+00
   7.969  0.408E+00  0.136E+00  0.136E+00  0.136E+00
   7.979  0.375E+00  0.125E+00  0.125E+00  0.125E+00
   7.989  0.342E+00  0.114E+00  0.114E+00  0.114E+00
   7.999  0.310E+00  0.103E+00  0.103E+00  0.103E+00
   8.009  0.279E+00  0.931E-01  0.931E-01  0.931E-01
   8.019  0.251E+00  0.836E-01  0.836E-01  0.836E-01
   8.029  0.225E+00  0.750E-01  0.750E-01  0.750E-01
   8.039  0.202E+00  0.672E-01  0.672E-01  0.672E-01
   8.049  0.182E+00  0.605E-01  0.605E-01  0.605E-01
   8.059  0.165E+00  0.549E-01  0.549E-01  0.549E-01
   8.069  0.151E+00  0.504E-01  0.504E-01  0.504E-01
   8.079  0.141E+00  0.471E-01  0.471E-01  0.471E-01
   8.089  0.134E+00  0.447E-01  0.447E-01  0.447E-01
   8.099  0.130E+00  0.435E-01  0.435E-01  0.435E-01
   8.109  0.130E+00  0.432E-01  0.432E-01  0.432E-01
   8.119  0.131E+00  0.438E-01  0.438E-01  0.438E-01
   8.129  0.136E+00  0.453E-01  0.453E-01  0.453E-01
   8.139  0.142E+00  0.475E-01  0.475E-01  0.475E-01
   8.149  0.151E+00  0.503E-01  0.503E-01  0.503E-01
   8.159  0.161E+00  0.537E-01  0.537E-01  0.537E-01
   8.169  0.173E+00  0.577E-01  0.577E-01  0.577E-01
   8.179  0.186E+00  0.619E-01  0.619E-01  0.619E-01
   8.189  0.200E+00  0.665E-01  0.665E-01  0.665E-01
   8.199  0.214E+00  0.713E-01  0.713E-01  0.713E-01
   8.209  0.228E+00  0.761E-01  0.761E-01  0.761E-01
   8.219  0.243E+00  0.809E-01  0.809E-01  0.809E-01
   8.229  0.257E+00  0.856E-01  0.856E-01  0.856E-01
   8.239  0.270E+00  0.900E-01  0.900E-01  0.900E-01
   8.249  0.282E+00  0.941E-01  0.941E-01  0.941E-01
   8.259  0.293E+00  0.977E-01  0.977E-01  0.977E-01
   8.269  0.303E+00  0.101E+00  0.101E+00  0.101E+00
   8.279  0.310E+00  0.103E+00  0.103E+00  0.103E+00
   8.289  0.316E+00  0.105E+00  0.105E+00  0.105E+00
   8.299  0.319E+00  0.106E+00  0.106E+00  0.106E+00
   8.309  0.321E+00  0.107E+00  0.107E+00  0.107E+00
   8.319  0.320E+00  0.107E+00  0.107E+00  0.107E+00
   8.329  0.318E+00  0.106E+00  0.106E+00  0.106E+00
   8.339  0.314E+00  0.105E+00  0.105E+00  0.105E+00
   8.349  0.308E+00  0.103E+00  0.103E+00  0.103E+00
   8.359  0.301E+00  0.100E+00  0.100E+00  0.100E+00
   8.369  0.294E+00  0.980E-01  0.980E-01  0.980E-01
   8.379  0.286E+00  0.955E-01  0.955E-01  0.955E-01
   8.389  0.279E+00  0.930E-01  0.930E-01  0.930E-01
   8.399  0.273E+00  0.909E-01  0.909E-01  0.909E-01
   8.409  0.267E+00  0.891E-01  0.891E-01  0.891E-01
   8.419  0.264E+00  0.880E-01  0.880E-01  0.880E-01
   8.429  0.263E+00  0.875E-01  0.875E-01  0.875E-01
   8.439  0.264E+00  0.879E-01  0.879E-01  0.879E-01
   8.449  0.268E+00  0.892E-01  0.892E-01  0.892E-01
   8.459  0.274E+00  0.915E-01  0.915E-01  0.915E-01
   8.469  0.284E+00  0.948E-01  0.948E-01  0.948E-01
   8.479  0.297E+00  0.991E-01  0.991E-01  0.991E-01
   8.489  0.313E+00  0.104E+00  0.104E+00  0.104E+00
   8.499  0.332E+00  0.111E+00  0.111E+00  0.111E+00
   8.509  0.353E+00  0.118E+00  0.118E+00  0.118E+00
   8.519  0.376E+00  0.125E+00  0.125E+00  0.125E+00
   8.529  0.401E+00  0.134E+00  0.134E+00  0.134E+00
   8.539  0.427E+00  0.142E+00  0.142E+00  0.142E+00
   8.549  0.453E+00  0.151E+00  0.151E+00  0.151E+00
   8.559  0.479E+00  0.160E+00  0.160E+00  0.160E+00
   8.569  0.505E+00  0.168E+00  0.168E+00  0.168E+00
   8.579  0.530E+00  0.177E+00  0.177E+00  0.177E+00
   8.589  0.553E+00  0.184E+00  0.184E+00  0.184E+00
   8.599  0.574E+00  0.191E+00  0.191E+00  0.191E+00
   8.609  0.592E+00  0.197E+00  0.197E+00  0.197E+00
   8.619  0.607E+00  0.202E+00  0.202E+00  0.202E+00
   8.629  0.619E+00  0.206E+00  0.206E+00  0.206E+00
   8.639  0.628E+00  0.209E+00  0.209E+00  0.209E+00
   8.649  0.634E+00  0.211E+00  0.211E+00  0.211E+00
   8.659  0.636E+00  0.212E+00  0.212E+00  0.212E+00
   8.669  0.635E+00  0.212E+00  0.212E+00  0.212E+00
   8.679  0.631E+00  0.210E+00  0.210E+00  0.210E+00
   8.689  0.623E+00  0.208E+00  0.208E+00  0.208E+00
   8.699  0.613E+00  0.204E+00  0.204E+00  0.204E+00
   8.709  0.600E+00  0.200E+00  0.200E+00  0.200E+00
   8.719  0.585E+00  0.195E+00  0.195E+00  0.195E+00
   8.729  0.568E+00  0.189E+00  0.189E+00  0.189E+00
   8.739  0.550E+00  0.183E+00  0.183E+00  0.183E+00
   8.749  0.530E+00  0.177E+00  0.177E+00  0.177E+00
   8.759  0.509E+00  0.170E+00  0.170E+00  0.170E+00
   8.769  0.487E+00  0.162E+00  0.162E+00  0.162E+00
   8.779  0.466E+00  0.155E+00  0.155E+00  0.155E+00
   8.789  0.444E+00  0.148E+00  0.148E+00  0.148E+00
   8.799  0.422E+00  0.141E+00  0.141E+00  0.141E+00
   8.809  0.401E+00  0.134E+00  0.134E+00  0.134E+00
   8.819  0.380E+00  0.127E+00  0.127E+00  0.127E+00
   8.829  0.361E+00  0.120E+00  0.120E+00  0.120E+00
   8.839  0.342E+00  0.114E+00  0.114E+00  0.114E+00
   8.849  0.324E+00  0.108E+00  0.108E+00  0.108E+00
   8.859  0.307E+00  0.102E+00  0.102E+00  0.102E+00
   8.869  0.292E+00  0.974E-01  0.974E-01  0.974E-01
   8.879  0.278E+00  0.926E-01  0.926E-01  0.926E-01
   8.889  0.265E+00  0.884E-01  0.884E-01  0.884E-01
   8.899  0.254E+00  0.845E-01  0.845E-01  0.845E-01
   8.909  0.244E+00  0.812E-01  0.812E-01  0.812E-01
   8.919  0.235E+00  0.784E-01  0.784E-01  0.784E-01
   8.929  0.229E+00  0.762E-01  0.762E-01  0.762E-01
   8.939  0.224E+00  0.746E-01  0.746E-01  0.746E-01
   8.949  0.221E+00  0.736E-01  0.736E-01  0.736E-01
   8.959  0.220E+00  0.734E-01  0.734E-01  0.734E-01
   8.969  0.222E+00  0.739E-01  0.739E-01  0.739E-01
   8.979  0.225E+00  0.751E-01  0.751E-01  0.751E-01
   8.989  0.232E+00  0.773E-01  0.773E-01  0.773E-01
   8.999  0.241E+00  0.802E-01  0.802E-01  0.802E-01
   9.009  0.252E+00  0.840E-01  0.840E-01  0.840E-01
   9.019  0.266E+00  0.885E-01  0.885E-01  0.885E-01
   9.029  0.282E+00  0.939E-01  0.939E-01  0.939E-01
   9.039  0.300E+00  0.999E-01  0.999E-01  0.999E-01
   9.049  0.319E+00  0.106E+00  0.106E+00  0.106E+00
   9.059  0.341E+00  0.114E+00  0.114E+00  0.114E+00
   9.069  0.364E+00  0.121E+00  0.121E+00  0.121E+00
   9.079  0.387E+00  0.129E+00  0.129E+00  0.129E+00
   9.089  0.411E+00  0.137E+00  0.137E+00  0.137E+00
   9.099  0.435E+00  0.145E+00  0.145E+00  0.145E+00
   9.109  0.459E+00  0.153E+00  0.153E+00  0.153E+00
   9.119  0.482E+00  0.161E+00  0.161E+00  0.161E+00
   9.129  0.504E+00  0.168E+00  0.168E+00  0.168E+00
   9.139  0.525E+00  0.175E+00  0.175E+00  0.175E+00
   9.149  0.545E+00  0.182E+00  0.182E+00  0.182E+00
   9.159  0.563E+00  0.188E+00  0.188E+00  0.188E+00
   9.169  0.579E+00  0.193E+00  0.193E+00  0.193E+00
   9.179  0.594E+00  0.198E+00  0.198E+00  0.198E+00
   9.189  0.607E+00  0.202E+00  0.202E+00  0.202E+00
   9.199  0.618E+00  0.206E+00  0.206E+00  0.206E+00
   9.209  0.628E+00  0.209E+00  0.209E+00  0.209E+00
   9.219  0.636E+00  0.212E+00  0.212E+00  0.212E+00
   9.229  0.643E+00  0.214E+00  0.214E+00  0.214E+00
   9.239  0.649E+00  0.216E+00  0.216E+00  0.216E+00
   9.249  0.655E+00  0.218E+00  0.218E+00  0.218E+00
   9.259  0.661E+00  0.220E+00  0.220E+00  0.220E+00
   9.269  0.668E+00  0.223E+00  0.223E+00  0.223E+00
   9.279  0.675E+00  0.225E+00  0.225E+00  0.225E+00
   9.289  0.682E+00  0.227E+00  0.227E+00  0.227E+00
   9.299  0.691E+00  0.230E+00  0.230E+00  0.230E+00
   9.309  0.702E+00  0.234E+00  0.234E+00  0.234E+00
   9.319  0.713E+00  0.238E+00  0.238E+00  0.238E+00
   9.329  0.726E+00  0.242E+00  0.242E+00  0.242E+00
   9.339  0.740E+00  0.247E+00  0.247E+00  0.247E+00
   9.349  0.754E+00  0.251E+00  0.251E+00  0.251E+00
   9.359  0.768E+00  0.256E+00  0.256E+00  0.256E+00
   9.369  0.781E+00  0.260E+00  0.260E+00  0.260E+00
   9.379  0.793E+00  0.264E+00  0.264E+00  0.264E+00
   9.389  0.803E+00  0.268E+00  0.268E+00  0.268E+00
   9.399  0.810E+00  0.270E+00  0.270E+00  0.270E+00
   9.409  0.814E+00  0.271E+00  0.271E+00  0.271E+00
   9.419  0.815E+00  0.272E+00  0.272E+00  0.272E+00
   9.429  0.811E+00  0.270E+00  0.270E+00  0.270E+00
   9.439  0.802E+00  0.267E+00  0.267E+00  0.267E+00
   9.449  0.789E+00  0.263E+00  0.263E+00  0.263E+00
   9.459  0.772E+00  0.257E+00  0.257E+00  0.257E+00
   9.469  0.752E+00  0.251E+00  0.251E+00  0.251E+00
   9.479  0.727E+00  0.242E+00  0.242E+00  0.242E+00
   9.489  0.700E+00  0.233E+00  0.233E+00  0.233E+00
   9.499  0.670E+00  0.223E+00  0.223E+00  0.223E+00
   9.509  0.639E+00  0.213E+00  0.213E+00  0.213E+00
   9.519  0.607E+00  0.202E+00  0.202E+00  0.202E+00
   9.529  0.575E+00  0.192E+00  0.192E+00  0.192E+00
   9.539  0.543E+00  0.181E+00  0.181E+00  0.181E+00
   9.549  0.512E+00  0.171E+00  0.171E+00  0.171E+00
   9.559  0.483E+00  0.161E+00  0.161E+00  0.161E+00
   9.569  0.455E+00  0.152E+00  0.152E+00  0.152E+00
   9.579  0.430E+00  0.143E+00  0.143E+00  0.143E+00
   9.589  0.407E+00  0.136E+00  0.136E+00  0.136E+00
   9.599  0.386E+00  0.129E+00  0.129E+00  0.129E+00
   9.609  0.367E+00  0.122E+00  0.122E+00  0.122E+00
   9.619  0.351E+00  0.117E+00  0.117E+00  0.117E+00
   9.629  0.337E+00  0.112E+00  0.112E+00  0.112E+00
   9.639  0.325E+00  0.108E+00  0.108E+00  0.108E+00
   9.649  0.314E+00  0.105E+00  0.105E+00  0.105E+00
   9.659  0.305E+00  0.102E+00  0.102E+00  0.102E+00
   9.669  0.297E+00  0.992E-01  0.992E-01  0.992E-01
   9.679  0.291E+00  0.971E-01  0.971E-01  0.971E-01
   9.689  0.286E+00  0.954E-01  0.954E-01  0.954E-01
   9.699  0.282E+00  0.941E-01  0.941E-01  0.941E-01
   9.709  0.280E+00  0.932E-01  0.932E-01  0.932E-01
   9.719  0.278E+00  0.927E-01  0.927E-01  0.927E-01
   9.729  0.278E+00  0.927E-01  0.927E-01  0.927E-01
   9.739  0.280E+00  0.932E-01  0.932E-01  0.932E-01
   9.749  0.283E+00  0.943E-01  0.943E-01  0.943E-01
   9.759  0.288E+00  0.961E-01  0.961E-01  0.961E-01
   9.769  0.296E+00  0.988E-01  0.988E-01  0.988E-01
   9.779  0.307E+00  0.102E+00  0.102E+00  0.102E+00
   9.789  0.320E+00  0.107E+00  0.107E+00  0.107E+00
   9.799  0.337E+00  0.112E+00  0.112E+00  0.112E+00
   9.809  0.356E+00  0.119E+00  0.119E+00  0.119E+00
   9.819  0.379E+00  0.126E+00  0.126E+00  0.126E+00
   9.829  0.406E+00  0.135E+00  0.135E+00  0.135E+00
   9.839  0.435E+00  0.145E+00  0.145E+00  0.145E+00
   9.849  0.468E+00  0.156E+00  0.156E+00  0.156E+00
   9.859  0.503E+00  0.168E+00  0.168E+00  0.168E+00
   9.869  0.541E+00  0.180E+00  0.180E+00  0.180E+00
   9.879  0.580E+00  0.193E+00  0.193E+00  0.193E+00
   9.889  0.620E+00  0.207E+00  0.207E+00  0.207E+00
   9.899  0.661E+00  0.220E+00  0.220E+00  0.220E+00
   9.909  0.702E+00  0.234E+00  0.234E+00  0.234E+00
   9.919  0.742E+00  0.247E+00  0.247E+00  0.247E+00
   9.929  0.781E+00  0.260E+00  0.260E+00  0.260E+00
   9.939  0.818E+00  0.273E+00  0.273E+00  0.273E+00
   9.949  0.853E+00  0.284E+00  0.284E+00  0.284E+00
   9.959  0.885E+00  0.295E+00  0.295E+00  0.295E+00
   9.969  0.915E+00  0.305E+00  0.305E+00  0.305E+00
   9.979  0.941E+00  0.314E+00  0.314E+00  0.314E+00
   9.989  0.965E+00  0.322E+00  0.322E+00  0.322E+00
   9.999  0.985E+00  0.328E+00  0.328E+00  0.328E+00
  10.009  0.100E+01  0.334E+00  0.334E+00  0.334E+00
  10.019  0.101E+01  0.338E+00  0.338E+00  0.338E+00
  10.029  0.102E+01  0.341E+00  0.341E+00  0.341E+00
  10.039  0.103E+01  0.344E+00  0.344E+00  0.344E+00
  10.049  0.103E+01  0.345E+00  0.345E+00  0.345E+00
  10.059  0.103E+01  0.344E+00  0.344E+00  0.344E+00
  10.069  0.103E+01  0.343E+00  0.343E+00  0.343E+00
  10.079  0.102E+01  0.340E+00  0.340E+00  0.340E+00
  10.089  0.101E+01  0.337E+00  0.337E+00  0.337E+00
  10.099  0.995E+00  0.332E+00  0.332E+00  0.332E+00
  10.109  0.977E+00  0.326E+00  0.326E+00  0.326E+00
  10.119  0.955E+00  0.318E+00  0.318E+00  0.318E+00
  10.129  0.931E+00  0.310E+00  0.310E+00  0.310E+00
  10.139  0.903E+00  0.301E+00  0.301E+00  0.301E+00
  10.149  0.873E+00  0.291E+00  0.291E+00  0.291E+00
  10.159  0.841E+00  0.280E+00  0.280E+00  0.280E+00
  10.169  0.807E+00  0.269E+00  0.269E+00  0.269E+00
  10.179  0.773E+00  0.258E+00  0.258E+00  0.258E+00
  10.189  0.737E+00  0.246E+00  0.246E+00  0.246E+00
  10.199  0.702E+00  0.234E+00  0.234E+00  0.234E+00
  10.209  0.667E+00  0.222E+00  0.222E+00  0.222E+00
  10.219  0.633E+00  0.211E+00  0.211E+00  0.211E+00
  10.229  0.601E+00  0.200E+00  0.200E+00  0.200E+00
  10.239  0.571E+00  0.190E+00  0.190E+00  0.190E+00
  10.249  0.543E+00  0.181E+00  0.181E+00  0.181E+00
  10.259  0.519E+00  0.173E+00  0.173E+00  0.173E+00
  10.269  0.497E+00  0.166E+00  0.166E+00  0.166E+00
  10.279  0.478E+00  0.159E+00  0.159E+00  0.159E+00
  10.289  0.463E+00  0.154E+00  0.154E+00  0.154E+00
  10.299  0.451E+00  0.150E+00  0.150E+00  0.150E+00
  10.309  0.442E+00  0.147E+00  0.147E+00  0.147E+00
  10.319  0.437E+00  0.146E+00  0.146E+00  0.146E+00
  10.329  0.435E+00  0.145E+00  0.145E+00  0.145E+00
  10.339  0.435E+00  0.145E+00  0.145E+00  0.145E+00
  10.349  0.437E+00  0.146E+00  0.146E+00  0.146E+00
  10.359  0.442E+00  0.147E+00  0.147E+00  0.147E+00
  10.369  0.448E+00  0.149E+00  0.149E+00  0.149E+00
  10.379  0.456E+00  0.152E+00  0.152E+00  0.152E+00
  10.389  0.464E+00  0.155E+00  0.155E+00  0.155E+00
  10.399  0.473E+00  0.158E+00  0.158E+00  0.158E+00
  10.409  0.481E+00  0.160E+00  0.160E+00  0.160E+00
  10.419  0.489E+00  0.163E+00  0.163E+00  0.163E+00
  10.429  0.496E+00  0.165E+00  0.165E+00  0.165E+00
  10.439  0.501E+00  0.167E+00  0.167E+00  0.167E+00
  10.449  0.505E+00  0.168E+00  0.168E+00  0.168E+00
  10.459  0.506E+00  0.169E+00  0.169E+00  0.169E+00
  10.469  0.505E+00  0.168E+00  0.168E+00  0.168E+00
  10.479  0.501E+00  0.167E+00  0.167E+00  0.167E+00
  10.489  0.494E+00  0.165E+00  0.165E+00  0.165E+00
  10.499  0.485E+00  0.162E+00  0.162E+00  0.162E+00
  10.509  0.472E+00  0.157E+00  0.157E+00  0.157E+00
  10.519  0.457E+00  0.152E+00  0.152E+00  0.152E+00
  10.529  0.439E+00  0.146E+00  0.146E+00  0.146E+00
  10.539  0.418E+00  0.139E+00  0.139E+00  0.139E+00
  10.549  0.396E+00  0.132E+00  0.132E+00  0.132E+00
  10.559  0.371E+00  0.124E+00  0.124E+00  0.124E+00
  10.569  0.346E+00  0.115E+00  0.115E+00  0.115E+00
  10.579  0.319E+00  0.106E+00  0.106E+00  0.106E+00
  10.589  0.292E+00  0.973E-01  0.973E-01  0.973E-01
  10.599  0.265E+00  0.882E-01  0.882E-01  0.882E-01
  10.609  0.238E+00  0.793E-01  0.793E-01  0.793E-01
  10.619  0.212E+00  0.706E-01  0.706E-01  0.706E-01
  10.629  0.187E+00  0.624E-01  0.624E-01  0.624E-01
  10.639  0.164E+00  0.546E-01  0.546E-01  0.546E-01
  10.649  0.142E+00  0.475E-01  0.475E-01  0.475E-01
  10.659  0.123E+00  0.410E-01  0.410E-01  0.410E-01
  10.669  0.106E+00  0.352E-01  0.352E-01  0.352E-01
  10.679  0.904E-01  0.301E-01  0.301E-01  0.301E-01
  10.689  0.776E-01  0.259E-01  0.259E-01  0.259E-01
  10.699  0.671E-01  0.224E-01  0.224E-01  0.224E-01
  10.709  0.590E-01  0.197E-01  0.197E-01  0.197E-01
  10.719  0.532E-01  0.177E-01  0.177E-01  0.177E-01
  10.729  0.498E-01  0.166E-01  0.166E-01  0.166E-01
  10.739  0.488E-01  0.163E-01  0.163E-01  0.163E-01
  10.749  0.501E-01  0.167E-01  0.167E-01  0.167E-01
  10.759  0.537E-01  0.179E-01  0.179E-01  0.179E-01
  10.769  0.597E-01  0.199E-01  0.199E-01  0.199E-01
  10.779  0.680E-01  0.227E-01  0.227E-01  0.227E-01
  10.789  0.786E-01  0.262E-01  0.262E-01  0.262E-01
  10.799  0.915E-01  0.305E-01  0.305E-01  0.305E-01
  10.809  0.107E+00  0.355E-01  0.355E-01  0.355E-01
  10.819  0.124E+00  0.412E-01  0.412E-01  0.412E-01
  10.829  0.143E+00  0.475E-01  0.475E-01  0.475E-01
  10.839  0.163E+00  0.544E-01  0.544E-01  0.544E-01
  10.849  0.185E+00  0.617E-01  0.617E-01  0.617E-01
  10.859  0.208E+00  0.693E-01  0.693E-01  0.693E-01
  10.869  0.231E+00  0.771E-01  0.771E-01  0.771E-01
  10.879  0.255E+00  0.849E-01  0.849E-01  0.849E-01
  10.889  0.277E+00  0.925E-01  0.925E-01  0.925E-01
  10.899  0.299E+00  0.997E-01  0.997E-01  0.997E-01
  10.909  0.319E+00  0.106E+00  0.106E+00  0.106E+00
  10.919  0.337E+00  0.112E+00  0.112E+00  0.112E+00
  10.929  0.351E+00  0.117E+00  0.117E+00  0.117E+00
  10.939  0.363E+00  0.121E+00  0.121E+00  0.121E+00
  10.949  0.371E+00  0.124E+00  0.124E+00  0.124E+00
  10.959  0.376E+00  0.125E+00  0.125E+00  0.125E+00
  10.969  0.376E+00  0.125E+00  0.125E+00  0.125E+00
  10.979  0.373E+00  0.124E+00  0.124E+00  0.124E+00
  10.989  0.366E+00  0.122E+00  0.122E+00  0.122E+00
  10.999  0.356E+00  0.119E+00  0.119E+00  0.119E+00
  11.009  0.343E+00  0.114E+00  0.114E+00  0.114E+00
  11.019  0.328E+00  0.109E+00  0.109E+00  0.109E+00
  11.029  0.310E+00  0.103E+00  0.103E+00  0.103E+00
  11.039  0.292E+00  0.972E-01  0.972E-01  0.972E-01
  11.049  0.272E+00  0.907E-01  0.907E-01  0.907E-01
  11.059  0.252E+00  0.841E-01  0.841E-01  0.841E-01
  11.069  0.233E+00  0.776E-01  0.776E-01  0.776E-01
  11.079  0.214E+00  0.713E-01  0.713E-01  0.713E-01
  11.089  0.196E+00  0.655E-01  0.655E-01  0.655E-01
  11.099  0.180E+00  0.600E-01  0.600E-01  0.600E-01
  11.109  0.165E+00  0.551E-01  0.551E-01  0.551E-01
  11.119  0.152E+00  0.507E-01  0.507E-01  0.507E-01
  11.129  0.141E+00  0.469E-01  0.469E-01  0.469E-01
  11.139  0.131E+00  0.435E-01  0.435E-01  0.435E-01
  11.149  0.122E+00  0.407E-01  0.407E-01  0.407E-01
  11.159  0.115E+00  0.382E-01  0.382E-01  0.382E-01
  11.169  0.108E+00  0.362E-01  0.362E-01  0.362E-01
  11.179  0.103E+00  0.344E-01  0.344E-01  0.344E-01
  11.189  0.984E-01  0.328E-01  0.328E-01  0.328E-01
  11.199  0.941E-01  0.314E-01  0.314E-01  0.314E-01
  11.209  0.902E-01  0.301E-01  0.301E-01  0.301E-01
  11.219  0.866E-01  0.289E-01  0.289E-01  0.289E-01
  11.229  0.831E-01  0.277E-01  0.277E-01  0.277E-01
  11.239  0.797E-01  0.266E-01  0.266E-01  0.266E-01
  11.249  0.764E-01  0.255E-01  0.255E-01  0.255E-01
  11.259  0.733E-01  0.244E-01  0.244E-01  0.244E-01
  11.269  0.704E-01  0.235E-01  0.235E-01  0.235E-01
  11.279  0.678E-01  0.226E-01  0.226E-01  0.226E-01
  11.289  0.655E-01  0.218E-01  0.218E-01  0.218E-01
  11.299  0.638E-01  0.213E-01  0.213E-01  0.213E-01
  11.309  0.626E-01  0.209E-01  0.209E-01  0.209E-01
  11.319  0.620E-01  0.207E-01  0.207E-01  0.207E-01
  11.329  0.620E-01  0.207E-01  0.207E-01  0.207E-01
  11.339  0.627E-01  0.209E-01  0.209E-01  0.209E-01
  11.349  0.641E-01  0.214E-01  0.214E-01  0.214E-01
  11.359  0.660E-01  0.220E-01  0.220E-01  0.220E-01
  11.369  0.685E-01  0.228E-01  0.228E-01  0.228E-01
  11.379  0.714E-01  0.238E-01  0.238E-01  0.238E-01
  11.389  0.746E-01  0.249E-01  0.249E-01  0.249E-01
  11.399  0.780E-01  0.260E-01  0.260E-01  0.260E-01
  11.409  0.813E-01  0.271E-01  0.271E-01  0.271E-01
  11.419  0.846E-01  0.282E-01  0.282E-01  0.282E-01
  11.429  0.875E-01  0.292E-01  0.292E-01  0.292E-01
  11.439  0.900E-01  0.300E-01  0.300E-01  0.300E-01
  11.449  0.920E-01  0.307E-01  0.307E-01  0.307E-01
  11.459  0.934E-01  0.311E-01  0.311E-01  0.311E-01
  11.469  0.941E-01  0.314E-01  0.314E-01  0.314E-01
  11.479  0.941E-01  0.314E-01  0.314E-01  0.314E-01
  11.489  0.934E-01  0.311E-01  0.311E-01  0.311E-01
  11.499  0.921E-01  0.307E-01  0.307E-01  0.307E-01
  11.509  0.902E-01  0.301E-01  0.301E-01  0.301E-01
  11.519  0.878E-01  0.293E-01  0.293E-01  0.293E-01
  11.529  0.850E-01  0.283E-01  0.283E-01  0.283E-01
  11.539  0.818E-01  0.273E-01  0.273E-01  0.273E-01
  11.549  0.785E-01  0.262E-01  0.262E-01  0.262E-01
  11.559  0.751E-01  0.250E-01  0.250E-01  0.250E-01
  11.569  0.717E-01  0.239E-01  0.239E-01  0.239E-01
  11.579  0.683E-01  0.228E-01  0.228E-01  0.228E-01
  11.589  0.651E-01  0.217E-01  0.217E-01  0.217E-01
  11.599  0.620E-01  0.207E-01  0.207E-01  0.207E-01
  11.609  0.592E-01  0.197E-01  0.197E-01  0.197E-01
  11.619  0.565E-01  0.188E-01  0.188E-01  0.188E-01
  11.629  0.540E-01  0.180E-01  0.180E-01  0.180E-01
  11.639  0.517E-01  0.172E-01  0.172E-01  0.172E-01
  11.649  0.495E-01  0.165E-01  0.165E-01  0.165E-01
  11.659  0.475E-01  0.158E-01  0.158E-01  0.158E-01
  11.669  0.456E-01  0.152E-01  0.152E-01  0.152E-01
  11.679  0.439E-01  0.146E-01  0.146E-01  0.146E-01
  11.689  0.423E-01  0.141E-01  0.141E-01  0.141E-01
  11.699  0.409E-01  0.136E-01  0.136E-01  0.136E-01
  11.709  0.397E-01  0.132E-01  0.132E-01  0.132E-01
  11.719  0.388E-01  0.129E-01  0.129E-01  0.129E-01
  11.729  0.382E-01  0.127E-01  0.127E-01  0.127E-01
  11.739  0.380E-01  0.127E-01  0.127E-01  0.127E-01
  11.749  0.383E-01  0.128E-01  0.128E-01  0.128E-01
  11.759  0.391E-01  0.130E-01  0.130E-01  0.130E-01
  11.769  0.406E-01  0.135E-01  0.135E-01  0.135E-01
  11.779  0.427E-01  0.142E-01  0.142E-01  0.142E-01
  11.789  0.456E-01  0.152E-01  0.152E-01  0.152E-01
  11.799  0.492E-01  0.164E-01  0.164E-01  0.164E-01
  11.809  0.536E-01  0.179E-01  0.179E-01  0.179E-01
  11.819  0.587E-01  0.196E-01  0.196E-01  0.196E-01
  11.829  0.643E-01  0.214E-01  0.214E-01  0.214E-01
  11.839  0.706E-01  0.235E-01  0.235E-01  0.235E-01
  11.849  0.772E-01  0.257E-01  0.257E-01  0.257E-01
  11.859  0.841E-01  0.280E-01  0.280E-01  0.280E-01
  11.869  0.910E-01  0.303E-01  0.303E-01  0.303E-01
  11.879  0.978E-01  0.326E-01  0.326E-01  0.326E-01
  11.889  0.104E+00  0.348E-01  0.348E-01  0.348E-01
  11.899  0.110E+00  0.367E-01  0.367E-01  0.367E-01
  11.909  0.115E+00  0.385E-01  0.385E-01  0.385E-01
  11.919  0.120E+00  0.399E-01  0.399E-01  0.399E-01
  11.929  0.123E+00  0.410E-01  0.410E-01  0.410E-01
  11.939  0.125E+00  0.418E-01  0.418E-01  0.418E-01
  11.949  0.126E+00  0.421E-01  0.421E-01  0.421E-01
  11.959  0.126E+00  0.420E-01  0.420E-01  0.420E-01
  11.969  0.125E+00  0.416E-01  0.416E-01  0.416E-01
  11.979  0.122E+00  0.408E-01  0.408E-01  0.408E-01
  11.989  0.119E+00  0.397E-01  0.397E-01  0.397E-01
  11.999  0.115E+00  0.383E-01  0.383E-01  0.383E-01
  12.009  0.110E+00  0.368E-01  0.368E-01  0.368E-01
  12.019  0.106E+00  0.352E-01  0.352E-01  0.352E-01
  12.029  0.101E+00  0.336E-01  0.336E-01  0.336E-01
  12.039  0.966E-01  0.322E-01  0.322E-01  0.322E-01
  12.049  0.930E-01  0.310E-01  0.310E-01  0.310E-01
  12.059  0.904E-01  0.301E-01  0.301E-01  0.301E-01
  12.069  0.892E-01  0.297E-01  0.297E-01  0.297E-01
  12.079  0.895E-01  0.298E-01  0.298E-01  0.298E-01
  12.089  0.918E-01  0.306E-01  0.306E-01  0.306E-01
  12.099  0.963E-01  0.321E-01  0.321E-01  0.321E-01
  12.109  0.103E+00  0.343E-01  0.343E-01  0.343E-01
  12.119  0.112E+00  0.374E-01  0.374E-01  0.374E-01
  12.129  0.124E+00  0.414E-01  0.414E-01  0.414E-01
  12.139  0.139E+00  0.463E-01  0.463E-01  0.463E-01
  12.149  0.156E+00  0.521E-01  0.521E-01  0.521E-01
  12.159  0.176E+00  0.587E-01  0.587E-01  0.587E-01
  12.169  0.198E+00  0.661E-01  0.661E-01  0.661E-01
  12.179  0.223E+00  0.743E-01  0.743E-01  0.743E-01
  12.189  0.250E+00  0.832E-01  0.832E-01  0.832E-01
  12.199  0.278E+00  0.926E-01  0.926E-01  0.926E-01
  12.209  0.307E+00  0.102E+00  0.102E+00  0.102E+00
  12.219  0.337E+00  0.112E+00  0.112E+00  0.112E+00
  12.229  0.367E+00  0.122E+00  0.122E+00  0.122E+00
  12.239  0.396E+00  0.132E+00  0.132E+00  0.132E+00
  12.249  0.424E+00  0.141E+00  0.141E+00  0.141E+00
  12.259  0.450E+00  0.150E+00  0.150E+00  0.150E+00
  12.269  0.473E+00  0.158E+00  0.158E+00  0.158E+00
  12.279  0.494E+00  0.165E+00  0.165E+00  0.165E+00
  12.289  0.510E+00  0.170E+00  0.170E+00  0.170E+00
  12.299  0.523E+00  0.174E+00  0.174E+00  0.174E+00
  12.309  0.531E+00  0.177E+00  0.177E+00  0.177E+00
  12.319  0.534E+00  0.178E+00  0.178E+00  0.178E+00
  12.329  0.533E+00  0.178E+00  0.178E+00  0.178E+00
  12.339  0.527E+00  0.176E+00  0.176E+00  0.176E+00
  12.349  0.517E+00  0.172E+00  0.172E+00  0.172E+00
  12.359  0.503E+00  0.168E+00  0.168E+00  0.168E+00
  12.369  0.485E+00  0.162E+00  0.162E+00  0.162E+00
  12.379  0.465E+00  0.155E+00  0.155E+00  0.155E+00
  12.389  0.443E+00  0.148E+00  0.148E+00  0.148E+00
  12.399  0.419E+00  0.140E+00  0.140E+00  0.140E+00
  12.409  0.395E+00  0.132E+00  0.132E+00  0.132E+00
  12.419  0.370E+00  0.123E+00  0.123E+00  0.123E+00
  12.429  0.347E+00  0.116E+00  0.116E+00  0.116E+00
  12.439  0.325E+00  0.108E+00  0.108E+00  0.108E+00
  12.449  0.306E+00  0.102E+00  0.102E+00  0.102E+00
  12.459  0.288E+00  0.961E-01  0.961E-01  0.961E-01
  12.469  0.274E+00  0.912E-01  0.912E-01  0.912E-01
  12.479  0.262E+00  0.873E-01  0.873E-01  0.873E-01
  12.489  0.253E+00  0.842E-01  0.842E-01  0.842E-01
  12.499  0.246E+00  0.821E-01  0.821E-01  0.821E-01
  12.509  0.242E+00  0.808E-01  0.808E-01  0.808E-01
  12.519  0.240E+00  0.801E-01  0.801E-01  0.801E-01
  12.529  0.240E+00  0.799E-01  0.799E-01  0.799E-01
  12.539  0.240E+00  0.801E-01  0.801E-01  0.801E-01
  12.549  0.241E+00  0.805E-01  0.805E-01  0.805E-01
  12.559  0.243E+00  0.809E-01  0.809E-01  0.809E-01
  12.569  0.244E+00  0.812E-01  0.812E-01  0.812E-01
  12.579  0.244E+00  0.812E-01  0.812E-01  0.812E-01
  12.589  0.243E+00  0.809E-01  0.809E-01  0.809E-01
  12.599  0.240E+00  0.801E-01  0.801E-01  0.801E-01
  12.609  0.236E+00  0.788E-01  0.788E-01  0.788E-01
  12.619  0.231E+00  0.771E-01  0.771E-01  0.771E-01
  12.629  0.225E+00  0.749E-01  0.749E-01  0.749E-01
  12.639  0.217E+00  0.724E-01  0.724E-01  0.724E-01
  12.649  0.209E+00  0.696E-01  0.696E-01  0.696E-01
  12.659  0.200E+00  0.666E-01  0.666E-01  0.666E-01
  12.669  0.191E+00  0.637E-01  0.637E-01  0.637E-01
  12.679  0.183E+00  0.609E-01  0.609E-01  0.609E-01
  12.689  0.175E+00  0.584E-01  0.584E-01  0.584E-01
  12.699  0.169E+00  0.564E-01  0.564E-01  0.564E-01
  12.709  0.165E+00  0.550E-01  0.550E-01  0.550E-01
  12.719  0.163E+00  0.544E-01  0.544E-01  0.544E-01
  12.729  0.164E+00  0.546E-01  0.546E-01  0.546E-01
  12.739  0.167E+00  0.558E-01  0.558E-01  0.558E-01
  12.749  0.174E+00  0.581E-01  0.581E-01  0.581E-01
  12.759  0.184E+00  0.613E-01  0.613E-01  0.613E-01
  12.769  0.197E+00  0.656E-01  0.656E-01  0.656E-01
  12.779  0.213E+00  0.709E-01  0.709E-01  0.709E-01
  12.789  0.231E+00  0.771E-01  0.771E-01  0.771E-01
  12.799  0.252E+00  0.840E-01  0.840E-01  0.840E-01
  12.809  0.275E+00  0.915E-01  0.915E-01  0.915E-01
  12.819  0.298E+00  0.995E-01  0.995E-01  0.995E-01
  12.829  0.323E+00  0.108E+00  0.108E+00  0.108E+00
  12.839  0.348E+00  0.116E+00  0.116E+00  0.116E+00
  12.849  0.372E+00  0.124E+00  0.124E+00  0.124E+00
  12.859  0.395E+00  0.132E+00  0.132E+00  0.132E+00
  12.869  0.417E+00  0.139E+00  0.139E+00  0.139E+00
  12.879  0.436E+00  0.145E+00  0.145E+00  0.145E+00
  12.889  0.454E+00  0.151E+00  0.151E+00  0.151E+00
  12.899  0.468E+00  0.156E+00  0.156E+00  0.156E+00
  12.909  0.480E+00  0.160E+00  0.160E+00  0.160E+00
  12.919  0.489E+00  0.163E+00  0.163E+00  0.163E+00
  12.929  0.495E+00  0.165E+00  0.165E+00  0.165E+00
  12.939  0.499E+00  0.166E+00  0.166E+00  0.166E+00
  12.949  0.501E+00  0.167E+00  0.167E+00  0.167E+00
  12.959  0.501E+00  0.167E+00  0.167E+00  0.167E+00
  12.969  0.500E+00  0.167E+00  0.167E+00  0.167E+00
  12.979  0.498E+00  0.166E+00  0.166E+00  0.166E+00
  12.989  0.495E+00  0.165E+00  0.165E+00  0.165E+00
  12.999  0.492E+00  0.164E+00  0.164E+00  0.164E+00
  13.009  0.489E+00  0.163E+00  0.163E+00  0.163E+00
  13.019  0.487E+00  0.162E+00  0.162E+00  0.162E+00
  13.029  0.484E+00  0.161E+00  0.161E+00  0.161E+00
  13.039  0.483E+00  0.161E+00  0.161E+00  0.161E+00
  13.049  0.481E+00  0.160E+00  0.160E+00  0.160E+00
  13.059  0.481E+00  0.160E+00  0.160E+00  0.160E+00
  13.069  0.480E+00  0.160E+00  0.160E+00  0.160E+00
  13.079  0.480E+00  0.160E+00  0.160E+00  0.160E+00
  13.089  0.481E+00  0.160E+00  0.160E+00  0.160E+00
  13.099  0.481E+00  0.160E+00  0.160E+00  0.160E+00
  13.109  0.483E+00  0.161E+00  0.161E+00  0.161E+00
  13.119  0.485E+00  0.162E+00  0.162E+00  0.162E+00
  13.129  0.487E+00  0.162E+00  0.162E+00  0.162E+00
  13.139  0.491E+00  0.164E+00  0.164E+00  0.164E+00
  13.149  0.496E+00  0.165E+00  0.165E+00  0.165E+00
  13.159  0.502E+00  0.167E+00  0.167E+00  0.167E+00
  13.169  0.509E+00  0.170E+00  0.170E+00  0.170E+00
  13.179  0.518E+00  0.173E+00  0.173E+00  0.173E+00
  13.189  0.528E+00  0.176E+00  0.176E+00  0.176E+00
  13.199  0.539E+00  0.180E+00  0.180E+00  0.180E+00
  13.209  0.551E+00  0.184E+00  0.184E+00  0.184E+00
  13.219  0.563E+00  0.188E+00  0.188E+00  0.188E+00
  13.229  0.574E+00  0.191E+00  0.191E+00  0.191E+00
  13.239  0.585E+00  0.195E+00  0.195E+00  0.195E+00
  13.249  0.594E+00  0.198E+00  0.198E+00  0.198E+00
  13.259  0.601E+00  0.200E+00  0.200E+00  0.200E+00
  13.269  0.604E+00  0.201E+00  0.201E+00  0.201E+00
  13.279  0.605E+00  0.202E+00  0.202E+00  0.202E+00
  13.289  0.601E+00  0.200E+00  0.200E+00  0.200E+00
  13.299  0.593E+00  0.198E+00  0.198E+00  0.198E+00
  13.309  0.581E+00  0.194E+00  0.194E+00  0.194E+00
  13.319  0.565E+00  0.188E+00  0.188E+00  0.188E+00
  13.329  0.544E+00  0.181E+00  0.181E+00  0.181E+00
  13.339  0.520E+00  0.173E+00  0.173E+00  0.173E+00
  13.349  0.492E+00  0.164E+00  0.164E+00  0.164E+00
  13.359  0.461E+00  0.154E+00  0.154E+00  0.154E+00
  13.369  0.429E+00  0.143E+00  0.143E+00  0.143E+00
  13.379  0.396E+00  0.132E+00  0.132E+00  0.132E+00
  13.389  0.362E+00  0.121E+00  0.121E+00  0.121E+00
  13.399  0.328E+00  0.109E+00  0.109E+00  0.109E+00
  13.409  0.295E+00  0.983E-01  0.983E-01  0.983E-01
  13.419  0.263E+00  0.878E-01  0.878E-01  0.878E-01
  13.429  0.234E+00  0.780E-01  0.780E-01  0.780E-01
  13.439  0.207E+00  0.690E-01  0.690E-01  0.690E-01
  13.449  0.182E+00  0.608E-01  0.608E-01  0.608E-01
  13.459  0.161E+00  0.535E-01  0.535E-01  0.535E-01
  13.469  0.142E+00  0.472E-01  0.472E-01  0.472E-01
  13.479  0.125E+00  0.418E-01  0.418E-01  0.418E-01
  13.489  0.112E+00  0.373E-01  0.373E-01  0.373E-01
  13.499  0.101E+00  0.335E-01  0.335E-01  0.335E-01
  13.509  0.916E-01  0.305E-01  0.305E-01  0.305E-01
  13.519  0.846E-01  0.282E-01  0.282E-01  0.282E-01
  13.529  0.791E-01  0.264E-01  0.264E-01  0.264E-01
  13.539  0.750E-01  0.250E-01  0.250E-01  0.250E-01
  13.549  0.718E-01  0.239E-01  0.239E-01  0.239E-01
  13.559  0.695E-01  0.232E-01  0.232E-01  0.232E-01
  13.569  0.676E-01  0.225E-01  0.225E-01  0.225E-01
  13.579  0.660E-01  0.220E-01  0.220E-01  0.220E-01
  13.589  0.645E-01  0.215E-01  0.215E-01  0.215E-01
  13.599  0.630E-01  0.210E-01  0.210E-01  0.210E-01
  13.609  0.612E-01  0.204E-01  0.204E-01  0.204E-01
  13.619  0.592E-01  0.197E-01  0.197E-01  0.197E-01
  13.629  0.569E-01  0.190E-01  0.190E-01  0.190E-01
  13.639  0.543E-01  0.181E-01  0.181E-01  0.181E-01
  13.649  0.514E-01  0.171E-01  0.171E-01  0.171E-01
  13.659  0.482E-01  0.161E-01  0.161E-01  0.161E-01
  13.669  0.448E-01  0.149E-01  0.149E-01  0.149E-01
  13.679  0.413E-01  0.138E-01  0.138E-01  0.138E-01
  13.689  0.376E-01  0.125E-01  0.125E-01  0.125E-01
  13.699  0.340E-01  0.113E-01  0.113E-01  0.113E-01
  13.709  0.303E-01  0.101E-01  0.101E-01  0.101E-01
  13.719  0.268E-01  0.894E-02  0.894E-02  0.894E-02
  13.729  0.235E-01  0.782E-02  0.782E-02  0.782E-02
  13.739  0.203E-01  0.677E-02  0.677E-02  0.677E-02
  13.749  0.174E-01  0.580E-02  0.580E-02  0.580E-02
  13.759  0.148E-01  0.492E-02  0.492E-02  0.492E-02
  13.769  0.124E-01  0.412E-02  0.412E-02  0.412E-02
  13.779  0.103E-01  0.342E-02  0.342E-02  0.342E-02
  13.789  0.843E-02  0.281E-02  0.281E-02  0.281E-02
  13.799  0.685E-02  0.228E-02  0.228E-02  0.228E-02
  13.809  0.550E-02  0.183E-02  0.183E-02  0.183E-02
  13.819  0.437E-02  0.146E-02  0.146E-02  0.146E-02
  13.829  0.344E-02  0.115E-02  0.115E-02  0.115E-02
  13.839  0.268E-02  0.892E-03  0.892E-03  0.892E-03
  13.849  0.206E-02  0.687E-03  0.687E-03  0.687E-03
  13.859  0.157E-02  0.523E-03  0.523E-03  0.523E-03
  13.869  0.118E-02  0.394E-03  0.394E-03  0.394E-03
  13.879  0.881E-03  0.294E-03  0.294E-03  0.294E-03
  13.889  0.649E-03  0.216E-03  0.216E-03  0.216E-03
  13.899  0.473E-03  0.158E-03  0.158E-03  0.158E-03
  13.909  0.342E-03  0.114E-03  0.114E-03  0.114E-03
  13.919  0.244E-03  0.813E-04  0.813E-04  0.813E-04
  13.929  0.172E-03  0.574E-04  0.574E-04  0.574E-04
  13.939  0.120E-03  0.401E-04  0.401E-04  0.401E-04
  13.949  0.831E-04  0.277E-04  0.277E-04  0.277E-04
  13.959  0.568E-04  0.189E-04  0.189E-04  0.189E-04
  13.969  0.384E-04  0.128E-04  0.128E-04  0.128E-04
  13.979  0.257E-04  0.856E-05  0.856E-05  0.856E-05
  13.989  0.170E-04  0.567E-05  0.567E-05  0.567E-05
  13.999  0.111E-04  0.371E-05  0.371E-05  0.371E-05
  14.009  0.721E-05  0.240E-05  0.240E-05  0.240E-05
  14.019  0.462E-05  0.154E-05  0.154E-05  0.154E-05
  14.029  0.293E-05  0.976E-06  0.976E-06  0.976E-06
  14.039  0.184E-05  0.612E-06  0.612E-06  0.612E-06
  14.049  0.114E-05  0.379E-06  0.379E-06  0.379E-06
  14.059  0.699E-06  0.233E-06  0.233E-06  0.233E-06
  14.069  0.424E-06  0.141E-06  0.141E-06  0.141E-06
  14.079  0.255E-06  0.849E-07  0.849E-07  0.849E-07
  14.089  0.151E-06  0.504E-07  0.504E-07  0.504E-07
  14.099  0.889E-07  0.296E-07  0.296E-07  0.296E-07
  14.109  0.517E-07  0.172E-07  0.172E-07  0.172E-07
  14.119  0.297E-07  0.990E-08  0.990E-08  0.990E-08
  14.129  0.169E-07  0.563E-08  0.563E-08  0.563E-08
  14.139  0.951E-08  0.317E-08  0.317E-08  0.317E-08
  14.149  0.530E-08  0.177E-08  0.177E-08  0.177E-08
  14.159  0.292E-08  0.972E-09  0.972E-09  0.972E-09
  14.169  0.159E-08  0.530E-09  0.530E-09  0.530E-09
  14.179  0.857E-09  0.286E-09  0.286E-09  0.286E-09
  14.189  0.457E-09  0.152E-09  0.152E-09  0.152E-09
  14.199  0.241E-09  0.803E-10  0.803E-10  0.803E-10
  14.209  0.126E-09  0.419E-10  0.419E-10  0.419E-10
  14.219  0.649E-10  0.216E-10  0.216E-10  0.216E-10
  14.229  0.331E-10  0.110E-10  0.110E-10  0.110E-10
  14.239  0.167E-10  0.558E-11  0.558E-11  0.558E-11
  14.249  0.836E-11  0.279E-11  0.279E-11  0.279E-11
  14.259  0.413E-11  0.138E-11  0.138E-11  0.138E-11
  14.269  0.202E-11  0.674E-12  0.674E-12  0.674E-12
  14.279  0.978E-12  0.326E-12  0.326E-12  0.326E-12
  14.289  0.468E-12  0.156E-12  0.156E-12  0.156E-12
  14.299  0.000E+00  0.000E+00  0.000E+00  0.000E+00
  14.309  0.000E+00  0.000E+00  0.000E+00  0.000E+00
  14.319  0.000E+00  0.000E+00  0.000E+00  0.000E+00
  14.329  0.000E+00  0.000E+00  0.000E+00  0.000E+00
  14.339  0.000E+00  0.000E+00  0.000E+00  0.000E+00
  14.349  0.000E+00  0.000E+00  0.000E+00  0.000E+00
  14.359  0.000E+00  0.000E+00  0.000E+00  0.000E+00
  14.369  0.000E+00  0.000E+00  0.000E+00  0.000E+00
  14.379  0.000E+00  0.000E+00  0.000E+00  0.000E+00
  14.389  0.000E+00  0.000E+00  0.000E+00  0.000E+00
  14.399  0.000E+00  0.000E+00  0.000E+00  0.000E+00
  14.409  0.000E+00  0.000E+00  0.000E+00  0.000E+00
  14.419  0.000E+00  0.000E+00  0.000E+00  0.000E+00
  14.429  0.000E+00  0.000E+00  0.000E+00  0.000E+00
  14.439  0.000E+00  0.000E+00  0.000E+00  0.000E+00
  14.449  0.000E+00  0.000E+00  0.000E+00  0.000E+00
  14.459  0.000E+00  0.000E+00  0.000E+00  0.000E+00
  14.469  0.000E+00  0.000E+00  0.000E+00  0.000E+00
  14.479  0.000E+00  0.000E+00  0.000E+00  0.000E+00
  14.489  0.000E+00  0.000E+00  0.000E+00  0.000E+00
  14.499  0.000E+00  0.000E+00  0.000E+00  0.000E+00
  14.509  0.000E+00  0.000E+00  0.000E+00  0.000E+00
  14.519  0.000E+00  0.000E+00  0.000E+00  0.000E+00
  14.529  0.000E+00  0.000E+00  0.000E+00  0.000E+00
  14.539  0.000E+00  0.000E+00  0.000E+00  0.000E+00
  14.549  0.000E+00  0.000E+00  0.000E+00  0.000E+00
  14.559  0.000E+00  0.000E+00  0.000E+00  0.000E+00
  14.569  0.000E+00  0.000E+00  0.000E+00  0.000E+00
  14.579  0.000E+00  0.000E+00  0.000E+00  0.000E+00
  14.589  0.000E+00  0.000E+00  0.000E+00  0.000E+00
  14.599  0.000E+00  0.000E+00  0.000E+00  0.000E+00
  14.609  0.000E+00  0.000E+00  0.000E+00  0.000E+00
  14.619  0.000E+00  0.000E+00  0.000E+00  0.000E+00
  14.629  0.000E+00  0.000E+00  0.000E+00  0.000E+00
  14.639  0.000E+00  0.000E+00  0.000E+00  0.000E+00
  14.649  0.000E+00  0.000E+00  0.000E+00  0.000E+00
  14.659  0.000E+00  0.000E+00  0.000E+00  0.000E+00
  14.669  0.000E+00  0.000E+00  0.000E+00  0.000E+00
  14.679  0.000E+00  0.000E+00  0.000E+00  0.000E+00
  14.689  0.000E+00  0.000E+00  0.000E+00  0.000E+00
  14.699  0.000E+00  0.000E+00  0.000E+00  0.000E+00
  14.709  0.000E+00  0.000E+00  0.000E+00  0.000E+00
  14.719  0.000E+00  0.000E+00  0.000E+00  0.000E+00
  14.729  0.000E+00  0.000E+00  0.000E+00  0.000E+00
  14.739  0.000E+00  0.000E+00  0.000E+00  0.000E+00
  14.749  0.000E+00  0.000E+00  0.000E+00  0.000E+00
  14.759  0.000E+00  0.000E+00  0.000E+00  0.000E+00
  14.769  0.000E+00  0.000E+00  0.000E+00  0.000E+00
  14.779  0.000E+00  0.000E+00  0.000E+00  0.000E+00
  14.789  0.000E+00  0.000E+00  0.000E+00  0.000E+00
  14.799  0.000E+00  0.000E+00  0.000E+00  0.000E+00
  14.809  0.000E+00  0.000E+00  0.000E+00  0.000E+00
  14.819  0.000E+00  0.000E+00  0.000E+00  0.000E+00
  14.829  0.000E+00  0.000E+00  0.000E+00  0.000E+00
  14.839  0.000E+00  0.000E+00  0.000E+00  0.000E+00
  14.849  0.000E+00  0.000E+00  0.000E+00  0.000E+00
  14.859  0.000E+00  0.000E+00  0.000E+00  0.000E+00
  14.869  0.000E+00  0.000E+00  0.000E+00  0.000E+00
  14.879  0.000E+00  0.000E+00  0.000E+00  0.000E+00
  14.889  0.000E+00  0.000E+00  0.000E+00  0.000E+00
  14.899  0.000E+00  0.000E+00  0.000E+00  0.000E+00
  14.909  0.000E+00  0.000E+00  0.000E+00  0.000E+00
  14.919  0.000E+00  0.000E+00  0.000E+00  0.000E+00
  14.929  0.000E+00  0.000E+00  0.000E+00  0.000E+00
  14.939  0.000E+00  0.000E+00  0.000E+00  0.000E+00
  14.949  0.000E+00  0.000E+00  0.000E+00  0.000E+00
  14.959  0.000E+00  0.000E+00  0.000E+00  0.000E+00
  14.969  0.000E+00  0.000E+00  0.000E+00  0.000E+00
  14.979  0.000E+00  0.000E+00  0.000E+00  0.000E+00
  14.989  0.000E+00  0.000E+00  0.000E+00  0.000E+00
  14.999  0.000E+00  0.000E+00  0.000E+00  0.000E+00
  15.009  0.000E+00  0.000E+00  0.000E+00  0.000E+00
  15.019  0.000E+00  0.000E+00  0.000E+00  0.000E+00
  15.029  0.000E+00  0.000E+00  0.000E+00  0.000E+00
  15.039  0.000E+00  0.000E+00  0.000E+00  0.000E+00
  15.049  0.000E+00  0.000E+00  0.000E+00  0.000E+00
  15.059  0.000E+00  0.000E+00  0.000E+00  0.000E+00
  15.069  0.000E+00  0.000E+00  0.000E+00  0.000E+00
  15.079  0.000E+00  0.000E+00  0.000E+00  0.000E+00
  15.089  0.000E+00  0.000E+00  0.000E+00  0.000E+00
  15.099  0.000E+00  0.000E+00  0.000E+00  0.000E+00
  15.109  0.000E+00  0.000E+00  0.000E+00  0.000E+00
  15.119  0.000E+00  0.000E+00  0.000E+00  0.000E+00
  15.129  0.000E+00  0.000E+00  0.000E+00  0.000E+00
  15.139  0.000E+00  0.000E+00  0.000E+00  0.000E+00
  15.149  0.000E+00  0.000E+00  0.000E+00  0.000E+00
  15.159  0.633E-12  0.211E-12  0.211E-12  0.211E-12
  15.169  0.133E-11  0.443E-12  0.443E-12  0.443E-12
  15.179  0.276E-11  0.921E-12  0.921E-12  0.921E-12
  15.189  0.568E-11  0.189E-11  0.189E-11  0.189E-11
  15.199  0.115E-10  0.385E-11  0.385E-11  0.385E-11
  15.209  0.232E-10  0.774E-11  0.774E-11  0.774E-11
  15.219  0.462E-10  0.154E-10  0.154E-10  0.154E-10
  15.229  0.909E-10  0.303E-10  0.303E-10  0.303E-10
  15.239  0.177E-09  0.590E-10  0.590E-10  0.590E-10
  15.249  0.341E-09  0.114E-09  0.114E-09  0.114E-09
  15.259  0.650E-09  0.217E-09  0.217E-09  0.217E-09
  15.269  0.122E-08  0.408E-09  0.408E-09  0.408E-09
  15.279  0.228E-08  0.761E-09  0.761E-09  0.761E-09
  15.289  0.421E-08  0.140E-08  0.140E-08  0.140E-08
  15.299  0.769E-08  0.256E-08  0.256E-08  0.256E-08
  15.309  0.139E-07  0.463E-08  0.463E-08  0.463E-08
  15.319  0.248E-07  0.826E-08  0.826E-08  0.826E-08
  15.329  0.438E-07  0.146E-07  0.146E-07  0.146E-07
  15.339  0.765E-07  0.255E-07  0.255E-07  0.255E-07
  15.349  0.132E-06  0.441E-07  0.441E-07  0.441E-07
  15.359  0.226E-06  0.754E-07  0.754E-07  0.754E-07
  15.369  0.383E-06  0.128E-06  0.128E-06  0.128E-06
  15.379  0.641E-06  0.214E-06  0.214E-06  0.214E-06
  15.389  0.106E-05  0.354E-06  0.354E-06  0.354E-06
  15.399  0.174E-05  0.579E-06  0.579E-06  0.579E-06
  15.409  0.282E-05  0.939E-06  0.939E-06  0.939E-06
  15.419  0.452E-05  0.151E-05  0.151E-05  0.151E-05
  15.429  0.716E-05  0.239E-05  0.239E-05  0.239E-05
  15.439  0.112E-04  0.374E-05  0.374E-05  0.374E-05
  15.449  0.174E-04  0.581E-05  0.581E-05  0.581E-05
  15.459  0.268E-04  0.892E-05  0.892E-05  0.892E-05
  15.469  0.406E-04  0.135E-04  0.135E-04  0.135E-04
  15.479  0.611E-04  0.204E-04  0.204E-04  0.204E-04
  15.489  0.907E-04  0.302E-04  0.302E-04  0.302E-04
  15.499  0.133E-03  0.445E-04  0.445E-04  0.445E-04
  15.509  0.194E-03  0.647E-04  0.647E-04  0.647E-04
  15.519  0.279E-03  0.931E-04  0.931E-04  0.931E-04
  15.529  0.397E-03  0.132E-03  0.132E-03  0.132E-03
  15.539  0.560E-03  0.187E-03  0.187E-03  0.187E-03
  15.549  0.780E-03  0.260E-03  0.260E-03  0.260E-03
  15.559  0.107E-02  0.358E-03  0.358E-03  0.358E-03
  15.569  0.146E-02  0.488E-03  0.488E-03  0.488E-03
  15.579  0.197E-02  0.658E-03  0.658E-03  0.658E-03
  15.589  0.263E-02  0.878E-03  0.878E-03  0.878E-03
  15.599  0.348E-02  0.116E-02  0.116E-02  0.116E-02
  15.609  0.454E-02  0.151E-02  0.151E-02  0.151E-02
  15.619  0.586E-02  0.195E-02  0.195E-02  0.195E-02
  15.629  0.749E-02  0.250E-02  0.250E-02  0.250E-02
  15.639  0.946E-02  0.315E-02  0.315E-02  0.315E-02
  15.649  0.118E-01  0.394E-02  0.394E-02  0.394E-02
  15.659  0.146E-01  0.488E-02  0.488E-02  0.488E-02
  15.669  0.179E-01  0.597E-02  0.597E-02  0.597E-02
  15.679  0.217E-01  0.723E-02  0.723E-02  0.723E-02
  15.689  0.260E-01  0.865E-02  0.865E-02  0.865E-02
  15.699  0.307E-01  0.102E-01  0.102E-01  0.102E-01
  15.709  0.360E-01  0.120E-01  0.120E-01  0.120E-01
  15.719  0.418E-01  0.139E-01  0.139E-01  0.139E-01
  15.729  0.479E-01  0.160E-01  0.160E-01  0.160E-01
  15.739  0.543E-01  0.181E-01  0.181E-01  0.181E-01
  15.749  0.610E-01  0.203E-01  0.203E-01  0.203E-01
  15.759  0.677E-01  0.226E-01  0.226E-01  0.226E-01
  15.769  0.744E-01  0.248E-01  0.248E-01  0.248E-01
  15.779  0.808E-01  0.269E-01  0.269E-01  0.269E-01
  15.789  0.868E-01  0.289E-01  0.289E-01  0.289E-01
  15.799  0.923E-01  0.308E-01  0.308E-01  0.308E-01
  15.809  0.971E-01  0.324E-01  0.324E-01  0.324E-01
  15.819  0.101E+00  0.337E-01  0.337E-01  0.337E-01
  15.829  0.104E+00  0.347E-01  0.347E-01  0.347E-01
  15.839  0.106E+00  0.353E-01  0.353E-01  0.353E-01
  15.849  0.107E+00  0.356E-01  0.356E-01  0.356E-01
  15.859  0.106E+00  0.354E-01  0.354E-01  0.354E-01
  15.869  0.105E+00  0.349E-01  0.349E-01  0.349E-01
  15.879  0.102E+00  0.341E-01  0.341E-01  0.341E-01
  15.889  0.986E-01  0.329E-01  0.329E-01  0.329E-01
  15.899  0.941E-01  0.314E-01  0.314E-01  0.314E-01
  15.909  0.888E-01  0.296E-01  0.296E-01  0.296E-01
  15.919  0.830E-01  0.277E-01  0.277E-01  0.277E-01
  15.929  0.766E-01  0.255E-01  0.255E-01  0.255E-01
  15.939  0.701E-01  0.234E-01  0.234E-01  0.234E-01
  15.949  0.633E-01  0.211E-01  0.211E-01  0.211E-01
  15.959  0.567E-01  0.189E-01  0.189E-01  0.189E-01
  15.969  0.501E-01  0.167E-01  0.167E-01  0.167E-01
  15.979  0.439E-01  0.146E-01  0.146E-01  0.146E-01
  15.989  0.380E-01  0.127E-01  0.127E-01  0.127E-01
  15.999  0.326E-01  0.109E-01  0.109E-01  0.109E-01
  16.009  0.276E-01  0.919E-02  0.919E-02  0.919E-02
  16.019  0.231E-01  0.771E-02  0.771E-02  0.771E-02
  16.029  0.192E-01  0.639E-02  0.639E-02  0.639E-02
  16.039  0.157E-01  0.524E-02  0.524E-02  0.524E-02
  16.049  0.128E-01  0.426E-02  0.426E-02  0.426E-02
  16.059  0.103E-01  0.342E-02  0.342E-02  0.342E-02
  16.069  0.814E-02  0.271E-02  0.271E-02  0.271E-02
  16.079  0.640E-02  0.213E-02  0.213E-02  0.213E-02
  16.089  0.497E-02  0.166E-02  0.166E-02  0.166E-02
  16.099  0.382E-02  0.127E-02  0.127E-02  0.127E-02
  16.109  0.291E-02  0.969E-03  0.969E-03  0.969E-03
  16.119  0.219E-02  0.729E-03  0.729E-03  0.729E-03
  16.129  0.163E-02  0.543E-03  0.543E-03  0.543E-03
  16.139  0.120E-02  0.400E-03  0.400E-03  0.400E-03
  16.149  0.874E-03  0.291E-03  0.291E-03  0.291E-03
  16.159  0.630E-03  0.210E-03  0.210E-03  0.210E-03
  16.169  0.449E-03  0.150E-03  0.150E-03  0.150E-03
  16.179  0.317E-03  0.106E-03  0.106E-03  0.106E-03
  16.189  0.221E-03  0.736E-04  0.736E-04  0.736E-04
  16.199  0.152E-03  0.508E-04  0.508E-04  0.508E-04
  16.209  0.104E-03  0.347E-04  0.347E-04  0.347E-04
  16.219  0.703E-04  0.234E-04  0.234E-04  0.234E-04
  16.229  0.470E-04  0.157E-04  0.157E-04  0.157E-04
  16.239  0.310E-04  0.103E-04  0.103E-04  0.103E-04
  16.249  0.203E-04  0.676E-05  0.676E-05  0.676E-05
  16.259  0.131E-04  0.437E-05  0.437E-05  0.437E-05
