# E (eV)   ldos(E)   pdos(E)   
  -6.307  0.236E-05  0.236E-05
  -6.297  0.365E-05  0.365E-05
  -6.287  0.558E-05  0.558E-05
  -6.277  0.844E-05  0.844E-05
  -6.267  0.126E-04  0.126E-04
  -6.257  0.187E-04  0.187E-04
  -6.247  0.274E-04  0.274E-04
  -6.237  0.397E-04  0.397E-04
  -6.227  0.569E-04  0.569E-04
  -6.217  0.807E-04  0.807E-04
  -6.207  0.113E-03  0.113E-03
  -6.197  0.157E-03  0.157E-03
  -6.187  0.216E-03  0.216E-03
  -6.177  0.293E-03  0.293E-03
  -6.167  0.393E-03  0.393E-03
  -6.157  0.522E-03  0.522E-03
  -6.147  0.687E-03  0.687E-03
  -6.137  0.893E-03  0.893E-03
  -6.127  0.115E-02  0.115E-02
  -6.117  0.146E-02  0.146E-02
  -6.107  0.184E-02  0.184E-02
  -6.097  0.229E-02  0.229E-02
  -6.087  0.283E-02  0.283E-02
  -6.077  0.344E-02  0.344E-02
  -6.067  0.415E-02  0.415E-02
  -6.057  0.495E-02  0.495E-02
  -6.047  0.584E-02  0.584E-02
  -6.037  0.682E-02  0.682E-02
  -6.027  0.788E-02  0.788E-02
  -6.017  0.900E-02  0.900E-02
  -6.007  0.102E-01  0.102E-01
  -5.997  0.114E-01  0.114E-01
  -5.987  0.126E-01  0.126E-01
  -5.977  0.138E-01  0.138E-01
  -5.967  0.149E-01  0.149E-01
  -5.957  0.159E-01  0.159E-01
  -5.947  0.169E-01  0.169E-01
  -5.937  0.177E-01  0.177E-01
  -5.927  0.184E-01  0.184E-01
  -5.917  0.189E-01  0.189E-01
  -5.907  0.192E-01  0.192E-01
  -5.897  0.193E-01  0.193E-01
  -5.887  0.192E-01  0.192E-01
  -5.877  0.190E-01  0.190E-01
  -5.867  0.186E-01  0.186E-01
  -5.857  0.180E-01  0.180E-01
  -5.847  0.174E-01  0.174E-01
  -5.837  0.168E-01  0.168E-01
  -5.827  0.162E-01  0.162E-01
  -5.817  0.156E-01  0.156E-01
  -5.807  0.152E-01  0.152E-01
  -5.797  0.150E-01  0.150E-01
  -5.787  0.151E-01  0.151E-01
  -5.777  0.155E-01  0.155E-01
  -5.767  0.163E-01  0.163E-01
  -5.757  0.177E-01  0.177E-01
  -5.747  0.196E-01  0.196E-01
  -5.737  0.222E-01  0.222E-01
  -5.727  0.255E-01  0.255E-01
  -5.717  0.296E-01  0.296E-01
  -5.707  0.344E-01  0.344E-01
  -5.697  0.401E-01  0.401E-01
  -5.687  0.466E-01  0.466E-01
  -5.677  0.538E-01  0.538E-01
  -5.667  0.618E-01  0.618E-01
  -5.657  0.705E-01  0.705E-01
  -5.647  0.798E-01  0.798E-01
  -5.637  0.895E-01  0.895E-01
  -5.627  0.996E-01  0.996E-01
  -5.617  0.110E+00  0.110E+00
  -5.607  0.120E+00  0.120E+00
  -5.597  0.130E+00  0.130E+00
  -5.587  0.140E+00  0.140E+00
  -5.577  0.149E+00  0.149E+00
  -5.567  0.157E+00  0.157E+00
  -5.557  0.165E+00  0.165E+00
  -5.547  0.172E+00  0.172E+00
  -5.537  0.177E+00  0.177E+00
  -5.527  0.181E+00  0.181E+00
  -5.517  0.184E+00  0.184E+00
  -5.507  0.186E+00  0.186E+00
  -5.497  0.187E+00  0.187E+00
  -5.487  0.186E+00  0.186E+00
  -5.477  0.184E+00  0.184E+00
  -5.467  0.180E+00  0.180E+00
  -5.457  0.176E+00  0.176E+00
  -5.447  0.171E+00  0.171E+00
  -5.437  0.165E+00  0.165E+00
  -5.427  0.158E+00  0.158E+00
  -5.417  0.150E+00  0.150E+00
  -5.407  0.141E+00  0.141E+00
  -5.397  0.133E+00  0.133E+00
  -5.387  0.124E+00  0.124E+00
  -5.377  0.114E+00  0.114E+00
  -5.367  0.105E+00  0.105E+00
  -5.357  0.954E-01  0.954E-01
  -5.347  0.862E-01  0.862E-01
  -5.337  0.773E-01  0.773E-01
  -5.327  0.687E-01  0.687E-01
  -5.317  0.606E-01  0.606E-01
  -5.307  0.530E-01  0.530E-01
  -5.297  0.460E-01  0.460E-01
  -5.287  0.397E-01  0.397E-01
  -5.277  0.341E-01  0.341E-01
  -5.267  0.291E-01  0.291E-01
  -5.257  0.249E-01  0.249E-01
  -5.247  0.215E-01  0.215E-01
  -5.237  0.187E-01  0.187E-01
  -5.227  0.167E-01  0.167E-01
  -5.217  0.155E-01  0.155E-01
  -5.207  0.150E-01  0.150E-01
  -5.197  0.153E-01  0.153E-01
  -5.187  0.164E-01  0.164E-01
  -5.177  0.183E-01  0.183E-01
  -5.167  0.211E-01  0.211E-01
  -5.157  0.247E-01  0.247E-01
  -5.147  0.293E-01  0.293E-01
  -5.137  0.348E-01  0.348E-01
  -5.127  0.412E-01  0.412E-01
  -5.117  0.485E-01  0.485E-01
  -5.107  0.566E-01  0.566E-01
  -5.097  0.656E-01  0.656E-01
  -5.087  0.752E-01  0.752E-01
  -5.077  0.854E-01  0.854E-01
  -5.067  0.960E-01  0.960E-01
  -5.057  0.107E+00  0.107E+00
  -5.047  0.118E+00  0.118E+00
  -5.037  0.128E+00  0.128E+00
  -5.027  0.138E+00  0.138E+00
  -5.017  0.147E+00  0.147E+00
  -5.007  0.155E+00  0.155E+00
  -4.997  0.162E+00  0.162E+00
  -4.987  0.167E+00  0.167E+00
  -4.977  0.170E+00  0.170E+00
  -4.967  0.172E+00  0.172E+00
  -4.957  0.172E+00  0.172E+00
  -4.947  0.170E+00  0.170E+00
  -4.937  0.167E+00  0.167E+00
  -4.927  0.162E+00  0.162E+00
  -4.917  0.156E+00  0.156E+00
  -4.907  0.148E+00  0.148E+00
  -4.897  0.141E+00  0.141E+00
  -4.887  0.132E+00  0.132E+00
  -4.877  0.124E+00  0.124E+00
  -4.867  0.116E+00  0.116E+00
  -4.857  0.109E+00  0.109E+00
  -4.847  0.103E+00  0.103E+00
  -4.837  0.982E-01  0.982E-01
  -4.827  0.954E-01  0.954E-01
  -4.817  0.946E-01  0.946E-01
  -4.807  0.961E-01  0.961E-01
  -4.797  0.100E+00  0.100E+00
  -4.787  0.106E+00  0.106E+00
  -4.777  0.116E+00  0.116E+00
  -4.767  0.127E+00  0.127E+00
  -4.757  0.142E+00  0.142E+00
  -4.747  0.158E+00  0.158E+00
  -4.737  0.177E+00  0.177E+00
  -4.727  0.198E+00  0.198E+00
  -4.717  0.220E+00  0.220E+00
  -4.707  0.244E+00  0.244E+00
  -4.697  0.267E+00  0.267E+00
  -4.687  0.291E+00  0.291E+00
  -4.677  0.314E+00  0.314E+00
  -4.667  0.336E+00  0.336E+00
  -4.657  0.356E+00  0.356E+00
  -4.647  0.374E+00  0.374E+00
  -4.637  0.389E+00  0.389E+00
  -4.627  0.400E+00  0.400E+00
  -4.617  0.408E+00  0.408E+00
  -4.607  0.413E+00  0.413E+00
  -4.597  0.413E+00  0.413E+00
  -4.587  0.409E+00  0.409E+00
  -4.577  0.402E+00  0.402E+00
  -4.567  0.391E+00  0.391E+00
  -4.557  0.376E+00  0.376E+00
  -4.547  0.359E+00  0.359E+00
  -4.537  0.340E+00  0.340E+00
  -4.527  0.318E+00  0.318E+00
  -4.517  0.295E+00  0.295E+00
  -4.507  0.271E+00  0.271E+00
  -4.497  0.247E+00  0.247E+00
  -4.487  0.223E+00  0.223E+00
  -4.477  0.200E+00  0.200E+00
  -4.467  0.177E+00  0.177E+00
  -4.457  0.156E+00  0.156E+00
  -4.447  0.135E+00  0.135E+00
  -4.437  0.117E+00  0.117E+00
  -4.427  0.998E-01  0.998E-01
  -4.417  0.846E-01  0.846E-01
  -4.407  0.710E-01  0.710E-01
  -4.397  0.590E-01  0.590E-01
  -4.387  0.487E-01  0.487E-01
  -4.377  0.398E-01  0.398E-01
  -4.367  0.322E-01  0.322E-01
  -4.357  0.259E-01  0.259E-01
  -4.347  0.207E-01  0.207E-01
  -4.337  0.164E-01  0.164E-01
  -4.327  0.130E-01  0.130E-01
  -4.317  0.103E-01  0.103E-01
  -4.307  0.832E-02  0.832E-02
  -4.297  0.686E-02  0.686E-02
  -4.287  0.588E-02  0.588E-02
  -4.277  0.535E-02  0.535E-02
  -4.267  0.523E-02  0.523E-02
  -4.257  0.547E-02  0.547E-02
  -4.247  0.609E-02  0.609E-02
  -4.237  0.706E-02  0.706E-02
  -4.227  0.839E-02  0.839E-02
  -4.217  0.101E-01  0.101E-01
  -4.207  0.122E-01  0.122E-01
  -4.197  0.147E-01  0.147E-01
  -4.187  0.176E-01  0.176E-01
  -4.177  0.209E-01  0.209E-01
  -4.167  0.246E-01  0.246E-01
  -4.157  0.287E-01  0.287E-01
  -4.147  0.333E-01  0.333E-01
  -4.137  0.382E-01  0.382E-01
  -4.127  0.434E-01  0.434E-01
  -4.117  0.489E-01  0.489E-01
  -4.107  0.547E-01  0.547E-01
  -4.097  0.607E-01  0.607E-01
  -4.087  0.670E-01  0.670E-01
  -4.077  0.734E-01  0.734E-01
  -4.067  0.800E-01  0.800E-01
  -4.057  0.868E-01  0.868E-01
  -4.047  0.938E-01  0.938E-01
  -4.037  0.101E+00  0.101E+00
  -4.027  0.109E+00  0.109E+00
  -4.017  0.117E+00  0.117E+00
  -4.007  0.126E+00  0.126E+00
  -3.997  0.136E+00  0.136E+00
  -3.987  0.146E+00  0.146E+00
  -3.977  0.158E+00  0.158E+00
  -3.967  0.170E+00  0.170E+00
  -3.957  0.184E+00  0.184E+00
  -3.947  0.198E+00  0.198E+00
  -3.937  0.214E+00  0.214E+00
  -3.927  0.230E+00  0.230E+00
  -3.917  0.247E+00  0.247E+00
  -3.907  0.264E+00  0.264E+00
  -3.897  0.282E+00  0.282E+00
  -3.887  0.299E+00  0.299E+00
  -3.877  0.316E+00  0.316E+00
  -3.867  0.332E+00  0.332E+00
  -3.857  0.346E+00  0.346E+00
  -3.847  0.360E+00  0.360E+00
  -3.837  0.372E+00  0.372E+00
  -3.827  0.382E+00  0.382E+00
  -3.817  0.391E+00  0.391E+00
  -3.807  0.398E+00  0.398E+00
  -3.797  0.405E+00  0.405E+00
  -3.787  0.410E+00  0.410E+00
  -3.777  0.414E+00  0.414E+00
  -3.767  0.417E+00  0.417E+00
  -3.757  0.420E+00  0.420E+00
  -3.747  0.423E+00  0.423E+00
  -3.737  0.426E+00  0.426E+00
  -3.727  0.429E+00  0.429E+00
  -3.717  0.432E+00  0.432E+00
  -3.707  0.436E+00  0.436E+00
  -3.697  0.439E+00  0.439E+00
  -3.687  0.442E+00  0.442E+00
  -3.677  0.445E+00  0.445E+00
  -3.667  0.447E+00  0.447E+00
  -3.657  0.449E+00  0.449E+00
  -3.647  0.450E+00  0.450E+00
  -3.637  0.450E+00  0.450E+00
  -3.627  0.449E+00  0.449E+00
  -3.617  0.447E+00  0.447E+00
  -3.607  0.445E+00  0.445E+00
  -3.597  0.442E+00  0.442E+00
  -3.587  0.439E+00  0.439E+00
  -3.577  0.435E+00  0.435E+00
  -3.567  0.432E+00  0.432E+00
  -3.557  0.429E+00  0.429E+00
  -3.547  0.426E+00  0.426E+00
  -3.537  0.423E+00  0.423E+00
  -3.527  0.420E+00  0.420E+00
  -3.517  0.418E+00  0.418E+00
  -3.507  0.415E+00  0.415E+00
  -3.497  0.412E+00  0.412E+00
  -3.487  0.409E+00  0.409E+00
  -3.477  0.404E+00  0.404E+00
  -3.467  0.398E+00  0.398E+00
  -3.457  0.391E+00  0.391E+00
  -3.447  0.382E+00  0.382E+00
  -3.437  0.371E+00  0.371E+00
  -3.427  0.358E+00  0.358E+00
  -3.417  0.343E+00  0.343E+00
  -3.407  0.326E+00  0.326E+00
  -3.397  0.307E+00  0.307E+00
  -3.387  0.287E+00  0.287E+00
  -3.377  0.266E+00  0.266E+00
  -3.367  0.244E+00  0.244E+00
  -3.357  0.222E+00  0.222E+00
  -3.347  0.199E+00  0.199E+00
  -3.337  0.178E+00  0.178E+00
  -3.327  0.157E+00  0.157E+00
  -3.317  0.137E+00  0.137E+00
  -3.307  0.118E+00  0.118E+00
  -3.297  0.101E+00  0.101E+00
  -3.287  0.857E-01  0.857E-01
  -3.277  0.718E-01  0.718E-01
  -3.267  0.595E-01  0.595E-01
  -3.257  0.489E-01  0.489E-01
  -3.247  0.397E-01  0.397E-01
  -3.237  0.320E-01  0.320E-01
  -3.227  0.256E-01  0.256E-01
  -3.217  0.203E-01  0.203E-01
  -3.207  0.161E-01  0.161E-01
  -3.197  0.129E-01  0.129E-01
  -3.187  0.105E-01  0.105E-01
  -3.177  0.889E-02  0.889E-02
  -3.167  0.796E-02  0.796E-02
  -3.157  0.769E-02  0.769E-02
  -3.147  0.806E-02  0.806E-02
  -3.137  0.909E-02  0.909E-02
  -3.127  0.108E-01  0.108E-01
  -3.117  0.133E-01  0.133E-01
  -3.107  0.166E-01  0.166E-01
  -3.097  0.207E-01  0.207E-01
  -3.087  0.259E-01  0.259E-01
  -3.077  0.322E-01  0.322E-01
  -3.067  0.398E-01  0.398E-01
  -3.057  0.486E-01  0.486E-01
  -3.047  0.588E-01  0.588E-01
  -3.037  0.704E-01  0.704E-01
  -3.027  0.834E-01  0.834E-01
  -3.017  0.979E-01  0.979E-01
  -3.007  0.114E+00  0.114E+00
  -2.997  0.131E+00  0.131E+00
  -2.987  0.149E+00  0.149E+00
  -2.977  0.167E+00  0.167E+00
  -2.967  0.187E+00  0.187E+00
  -2.957  0.206E+00  0.206E+00
  -2.947  0.226E+00  0.226E+00
  -2.937  0.245E+00  0.245E+00
  -2.927  0.263E+00  0.263E+00
  -2.917  0.280E+00  0.280E+00
  -2.907  0.297E+00  0.297E+00
  -2.897  0.312E+00  0.312E+00
  -2.887  0.326E+00  0.326E+00
  -2.877  0.338E+00  0.338E+00
  -2.867  0.349E+00  0.349E+00
  -2.857  0.360E+00  0.360E+00
  -2.847  0.369E+00  0.369E+00
  -2.837  0.378E+00  0.378E+00
  -2.827  0.387E+00  0.387E+00
  -2.817  0.396E+00  0.396E+00
  -2.807  0.406E+00  0.406E+00
  -2.797  0.416E+00  0.416E+00
  -2.787  0.426E+00  0.426E+00
  -2.777  0.437E+00  0.437E+00
  -2.767  0.448E+00  0.448E+00
  -2.757  0.460E+00  0.460E+00
  -2.747  0.471E+00  0.471E+00
  -2.737  0.481E+00  0.481E+00
  -2.727  0.490E+00  0.490E+00
  -2.717  0.497E+00  0.497E+00
  -2.707  0.501E+00  0.501E+00
  -2.697  0.503E+00  0.503E+00
  -2.687  0.501E+00  0.501E+00
  -2.677  0.496E+00  0.496E+00
  -2.667  0.487E+00  0.487E+00
  -2.657  0.474E+00  0.474E+00
  -2.647  0.458E+00  0.458E+00
  -2.637  0.438E+00  0.438E+00
  -2.627  0.415E+00  0.415E+00
  -2.617  0.389E+00  0.389E+00
  -2.607  0.362E+00  0.362E+00
  -2.597  0.333E+00  0.333E+00
  -2.587  0.303E+00  0.303E+00
  -2.577  0.273E+00  0.273E+00
  -2.567  0.243E+00  0.243E+00
  -2.557  0.215E+00  0.215E+00
  -2.547  0.188E+00  0.188E+00
  -2.537  0.162E+00  0.162E+00
  -2.527  0.139E+00  0.139E+00
  -2.517  0.117E+00  0.117E+00
  -2.507  0.981E-01  0.981E-01
  -2.497  0.813E-01  0.813E-01
  -2.487  0.666E-01  0.666E-01
  -2.477  0.540E-01  0.540E-01
  -2.467  0.433E-01  0.433E-01
  -2.457  0.343E-01  0.343E-01
  -2.447  0.269E-01  0.269E-01
  -2.437  0.209E-01  0.209E-01
  -2.427  0.161E-01  0.161E-01
  -2.417  0.122E-01  0.122E-01
  -2.407  0.917E-02  0.917E-02
  -2.397  0.682E-02  0.682E-02
  -2.387  0.502E-02  0.502E-02
  -2.377  0.365E-02  0.365E-02
  -2.367  0.263E-02  0.263E-02
  -2.357  0.187E-02  0.187E-02
  -2.347  0.132E-02  0.132E-02
  -2.337  0.920E-03  0.920E-03
  -2.327  0.635E-03  0.635E-03
  -2.317  0.433E-03  0.433E-03
  -2.307  0.292E-03  0.292E-03
  -2.297  0.195E-03  0.195E-03
  -2.287  0.129E-03  0.129E-03
  -2.277  0.849E-04  0.849E-04
  -2.267  0.555E-04  0.555E-04
  -2.257  0.365E-04  0.365E-04
  -2.247  0.248E-04  0.248E-04
  -2.237  0.182E-04  0.182E-04
  -2.227  0.155E-04  0.155E-04
  -2.217  0.160E-04  0.160E-04
  -2.207  0.197E-04  0.197E-04
  -2.197  0.271E-04  0.271E-04
  -2.187  0.391E-04  0.391E-04
  -2.177  0.572E-04  0.572E-04
  -2.167  0.838E-04  0.838E-04
  -2.157  0.122E-03  0.122E-03
  -2.147  0.176E-03  0.176E-03
  -2.137  0.251E-03  0.251E-03
  -2.127  0.355E-03  0.355E-03
  -2.117  0.497E-03  0.497E-03
  -2.107  0.689E-03  0.689E-03
  -2.097  0.945E-03  0.945E-03
  -2.087  0.128E-02  0.128E-02
  -2.077  0.173E-02  0.173E-02
  -2.067  0.230E-02  0.230E-02
  -2.057  0.303E-02  0.303E-02
  -2.047  0.396E-02  0.396E-02
  -2.037  0.513E-02  0.513E-02
  -2.027  0.657E-02  0.657E-02
  -2.017  0.835E-02  0.835E-02
  -2.007  0.105E-01  0.105E-01
  -1.997  0.131E-01  0.131E-01
  -1.987  0.162E-01  0.162E-01
  -1.977  0.199E-01  0.199E-01
  -1.967  0.243E-01  0.243E-01
  -1.957  0.293E-01  0.293E-01
  -1.947  0.351E-01  0.351E-01
  -1.937  0.417E-01  0.417E-01
  -1.927  0.493E-01  0.493E-01
  -1.917  0.577E-01  0.577E-01
  -1.907  0.672E-01  0.672E-01
  -1.897  0.776E-01  0.776E-01
  -1.887  0.890E-01  0.890E-01
  -1.877  0.101E+00  0.101E+00
  -1.867  0.115E+00  0.115E+00
  -1.857  0.129E+00  0.129E+00
  -1.847  0.144E+00  0.144E+00
  -1.837  0.160E+00  0.160E+00
  -1.827  0.176E+00  0.176E+00
  -1.817  0.192E+00  0.192E+00
  -1.807  0.209E+00  0.209E+00
  -1.797  0.225E+00  0.225E+00
  -1.787  0.241E+00  0.241E+00
  -1.777  0.255E+00  0.255E+00
  -1.767  0.269E+00  0.269E+00
  -1.757  0.281E+00  0.281E+00
  -1.747  0.291E+00  0.291E+00
  -1.737  0.299E+00  0.299E+00
  -1.727  0.304E+00  0.304E+00
  -1.717  0.307E+00  0.307E+00
  -1.707  0.307E+00  0.307E+00
  -1.697  0.305E+00  0.305E+00
  -1.687  0.299E+00  0.299E+00
  -1.677  0.291E+00  0.291E+00
  -1.667  0.280E+00  0.280E+00
  -1.657  0.267E+00  0.267E+00
  -1.647  0.253E+00  0.253E+00
  -1.637  0.236E+00  0.236E+00
  -1.627  0.219E+00  0.219E+00
  -1.617  0.201E+00  0.201E+00
  -1.607  0.182E+00  0.182E+00
  -1.597  0.163E+00  0.163E+00
  -1.587  0.145E+00  0.145E+00
  -1.577  0.128E+00  0.128E+00
  -1.567  0.111E+00  0.111E+00
  -1.557  0.959E-01  0.959E-01
  -1.547  0.817E-01  0.817E-01
  -1.537  0.689E-01  0.689E-01
  -1.527  0.575E-01  0.575E-01
  -1.517  0.475E-01  0.475E-01
  -1.507  0.388E-01  0.388E-01
  -1.497  0.314E-01  0.314E-01
  -1.487  0.251E-01  0.251E-01
  -1.477  0.199E-01  0.199E-01
  -1.467  0.156E-01  0.156E-01
  -1.457  0.121E-01  0.121E-01
  -1.447  0.924E-02  0.924E-02
  -1.437  0.701E-02  0.701E-02
  -1.427  0.526E-02  0.526E-02
  -1.417  0.390E-02  0.390E-02
  -1.407  0.286E-02  0.286E-02
  -1.397  0.208E-02  0.208E-02
  -1.387  0.150E-02  0.150E-02
  -1.377  0.106E-02  0.106E-02
  -1.367  0.751E-03  0.751E-03
  -1.357  0.526E-03  0.526E-03
  -1.347  0.367E-03  0.367E-03
  -1.337  0.258E-03  0.258E-03
  -1.327  0.185E-03  0.185E-03
  -1.317  0.140E-03  0.140E-03
  -1.307  0.117E-03  0.117E-03
  -1.297  0.112E-03  0.112E-03
  -1.287  0.123E-03  0.123E-03
  -1.277  0.150E-03  0.150E-03
  -1.267  0.196E-03  0.196E-03
  -1.257  0.264E-03  0.264E-03
  -1.247  0.358E-03  0.358E-03
  -1.237  0.485E-03  0.485E-03
  -1.227  0.655E-03  0.655E-03
  -1.217  0.879E-03  0.879E-03
  -1.207  0.117E-02  0.117E-02
  -1.197  0.155E-02  0.155E-02
  -1.187  0.203E-02  0.203E-02
  -1.177  0.264E-02  0.264E-02
  -1.167  0.342E-02  0.342E-02
  -1.157  0.438E-02  0.438E-02
  -1.147  0.559E-02  0.559E-02
  -1.137  0.707E-02  0.707E-02
  -1.127  0.890E-02  0.890E-02
  -1.117  0.111E-01  0.111E-01
  -1.107  0.138E-01  0.138E-01
  -1.097  0.170E-01  0.170E-01
  -1.087  0.209E-01  0.209E-01
  -1.077  0.254E-01  0.254E-01
  -1.067  0.308E-01  0.308E-01
  -1.057  0.370E-01  0.370E-01
  -1.047  0.443E-01  0.443E-01
  -1.037  0.525E-01  0.525E-01
  -1.027  0.619E-01  0.619E-01
  -1.017  0.725E-01  0.725E-01
  -1.007  0.842E-01  0.842E-01
  -0.997  0.972E-01  0.972E-01
  -0.987  0.111E+00  0.111E+00
  -0.977  0.127E+00  0.127E+00
  -0.967  0.143E+00  0.143E+00
  -0.957  0.160E+00  0.160E+00
  -0.947  0.177E+00  0.177E+00
  -0.937  0.195E+00  0.195E+00
  -0.927  0.213E+00  0.213E+00
  -0.917  0.231E+00  0.231E+00
  -0.907  0.248E+00  0.248E+00
  -0.897  0.265E+00  0.265E+00
  -0.887  0.280E+00  0.280E+00
  -0.877  0.294E+00  0.294E+00
  -0.867  0.306E+00  0.306E+00
  -0.857  0.316E+00  0.316E+00
  -0.847  0.325E+00  0.325E+00
  -0.837  0.331E+00  0.331E+00
  -0.827  0.335E+00  0.335E+00
  -0.817  0.338E+00  0.338E+00
  -0.807  0.340E+00  0.340E+00
  -0.797  0.340E+00  0.340E+00
  -0.787  0.339E+00  0.339E+00
  -0.777  0.338E+00  0.338E+00
  -0.767  0.337E+00  0.337E+00
  -0.757  0.336E+00  0.336E+00
  -0.747  0.337E+00  0.337E+00
  -0.737  0.338E+00  0.338E+00
  -0.727  0.340E+00  0.340E+00
  -0.717  0.344E+00  0.344E+00
  -0.707  0.350E+00  0.350E+00
  -0.697  0.357E+00  0.357E+00
  -0.687  0.365E+00  0.365E+00
  -0.677  0.373E+00  0.373E+00
  -0.667  0.383E+00  0.383E+00
  -0.657  0.392E+00  0.392E+00
  -0.647  0.400E+00  0.400E+00
  -0.637  0.407E+00  0.407E+00
  -0.627  0.412E+00  0.412E+00
  -0.617  0.416E+00  0.416E+00
  -0.607  0.416E+00  0.416E+00
  -0.597  0.414E+00  0.414E+00
  -0.587  0.408E+00  0.408E+00
  -0.577  0.399E+00  0.399E+00
  -0.567  0.387E+00  0.387E+00
  -0.557  0.372E+00  0.372E+00
  -0.547  0.354E+00  0.354E+00
  -0.537  0.334E+00  0.334E+00
  -0.527  0.312E+00  0.312E+00
  -0.517  0.289E+00  0.289E+00
  -0.507  0.264E+00  0.264E+00
  -0.497  0.239E+00  0.239E+00
  -0.487  0.215E+00  0.215E+00
  -0.477  0.191E+00  0.191E+00
  -0.467  0.167E+00  0.167E+00
  -0.457  0.146E+00  0.146E+00
  -0.447  0.125E+00  0.125E+00
  -0.437  0.107E+00  0.107E+00
  -0.427  0.899E-01  0.899E-01
  -0.417  0.750E-01  0.750E-01
  -0.407  0.619E-01  0.619E-01
  -0.397  0.506E-01  0.506E-01
  -0.387  0.409E-01  0.409E-01
  -0.377  0.328E-01  0.328E-01
  -0.367  0.261E-01  0.261E-01
  -0.357  0.206E-01  0.206E-01
  -0.347  0.162E-01  0.162E-01
  -0.337  0.128E-01  0.128E-01
  -0.327  0.102E-01  0.102E-01
  -0.317  0.834E-02  0.834E-02
  -0.307  0.714E-02  0.714E-02
  -0.297  0.653E-02  0.653E-02
  -0.287  0.646E-02  0.646E-02
  -0.277  0.691E-02  0.691E-02
  -0.267  0.789E-02  0.789E-02
  -0.257  0.939E-02  0.939E-02
  -0.247  0.115E-01  0.115E-01
  -0.237  0.141E-01  0.141E-01
  -0.227  0.174E-01  0.174E-01
  -0.217  0.214E-01  0.214E-01
  -0.207  0.261E-01  0.261E-01
  -0.197  0.316E-01  0.316E-01
  -0.187  0.379E-01  0.379E-01
  -0.177  0.449E-01  0.449E-01
  -0.167  0.527E-01  0.527E-01
  -0.157  0.612E-01  0.612E-01
  -0.147  0.703E-01  0.703E-01
  -0.137  0.799E-01  0.799E-01
  -0.127  0.899E-01  0.899E-01
  -0.117  0.100E+00  0.100E+00
  -0.107  0.110E+00  0.110E+00
  -0.097  0.120E+00  0.120E+00
  -0.087  0.129E+00  0.129E+00
  -0.077  0.137E+00  0.137E+00
  -0.067  0.145E+00  0.145E+00
  -0.057  0.151E+00  0.151E+00
  -0.047  0.156E+00  0.156E+00
  -0.037  0.159E+00  0.159E+00
  -0.027  0.161E+00  0.161E+00
  -0.017  0.160E+00  0.160E+00
  -0.007  0.159E+00  0.159E+00
   0.003  0.155E+00  0.155E+00
   0.013  0.150E+00  0.150E+00
   0.023  0.144E+00  0.144E+00
   0.033  0.137E+00  0.137E+00
   0.043  0.129E+00  0.129E+00
   0.053  0.121E+00  0.121E+00
   0.063  0.112E+00  0.112E+00
   0.073  0.104E+00  0.104E+00
   0.083  0.957E-01  0.957E-01
   0.093  0.884E-01  0.884E-01
   0.103  0.821E-01  0.821E-01
   0.113  0.770E-01  0.770E-01
   0.123  0.733E-01  0.733E-01
   0.133  0.712E-01  0.712E-01
   0.143  0.708E-01  0.708E-01
   0.153  0.722E-01  0.722E-01
   0.163  0.754E-01  0.754E-01
   0.173  0.804E-01  0.804E-01
   0.183  0.872E-01  0.872E-01
   0.193  0.955E-01  0.955E-01
   0.203  0.105E+00  0.105E+00
   0.213  0.116E+00  0.116E+00
   0.223  0.128E+00  0.128E+00
   0.233  0.140E+00  0.140E+00
   0.243  0.153E+00  0.153E+00
   0.253  0.166E+00  0.166E+00
   0.263  0.178E+00  0.178E+00
   0.273  0.189E+00  0.189E+00
   0.283  0.199E+00  0.199E+00
   0.293  0.208E+00  0.208E+00
   0.303  0.214E+00  0.214E+00
   0.313  0.219E+00  0.219E+00
   0.323  0.221E+00  0.221E+00
   0.333  0.221E+00  0.221E+00
   0.343  0.219E+00  0.219E+00
   0.353  0.214E+00  0.214E+00
   0.363  0.207E+00  0.207E+00
   0.373  0.199E+00  0.199E+00
   0.383  0.189E+00  0.189E+00
   0.393  0.177E+00  0.177E+00
   0.403  0.165E+00  0.165E+00
   0.413  0.152E+00  0.152E+00
   0.423  0.139E+00  0.139E+00
   0.433  0.126E+00  0.126E+00
   0.443  0.113E+00  0.113E+00
   0.453  0.101E+00  0.101E+00
   0.463  0.906E-01  0.906E-01
   0.473  0.807E-01  0.807E-01
   0.483  0.721E-01  0.721E-01
   0.493  0.647E-01  0.647E-01
   0.503  0.586E-01  0.586E-01
   0.513  0.537E-01  0.537E-01
   0.523  0.501E-01  0.501E-01
   0.533  0.474E-01  0.474E-01
   0.543  0.458E-01  0.458E-01
   0.553  0.449E-01  0.449E-01
   0.563  0.447E-01  0.447E-01
   0.573  0.450E-01  0.450E-01
   0.583  0.456E-01  0.456E-01
   0.593  0.464E-01  0.464E-01
   0.603  0.472E-01  0.472E-01
   0.613  0.479E-01  0.479E-01
   0.623  0.484E-01  0.484E-01
   0.633  0.487E-01  0.487E-01
   0.643  0.486E-01  0.486E-01
   0.653  0.482E-01  0.482E-01
   0.663  0.473E-01  0.473E-01
   0.673  0.462E-01  0.462E-01
   0.683  0.447E-01  0.447E-01
   0.693  0.429E-01  0.429E-01
   0.703  0.410E-01  0.410E-01
   0.713  0.390E-01  0.390E-01
   0.723  0.369E-01  0.369E-01
   0.733  0.349E-01  0.349E-01
   0.743  0.331E-01  0.331E-01
   0.753  0.315E-01  0.315E-01
   0.763  0.303E-01  0.303E-01
   0.773  0.295E-01  0.295E-01
   0.783  0.291E-01  0.291E-01
   0.793  0.291E-01  0.291E-01
   0.803  0.297E-01  0.297E-01
   0.813  0.307E-01  0.307E-01
   0.823  0.322E-01  0.322E-01
   0.833  0.341E-01  0.341E-01
   0.843  0.364E-01  0.364E-01
   0.853  0.389E-01  0.389E-01
   0.863  0.416E-01  0.416E-01
   0.873  0.444E-01  0.444E-01
   0.883  0.471E-01  0.471E-01
   0.893  0.498E-01  0.498E-01
   0.903  0.521E-01  0.521E-01
   0.913  0.542E-01  0.542E-01
   0.923  0.558E-01  0.558E-01
   0.933  0.569E-01  0.569E-01
   0.943  0.574E-01  0.574E-01
   0.953  0.574E-01  0.574E-01
   0.963  0.568E-01  0.568E-01
   0.973  0.556E-01  0.556E-01
   0.983  0.539E-01  0.539E-01
   0.993  0.517E-01  0.517E-01
   1.003  0.490E-01  0.490E-01
   1.013  0.460E-01  0.460E-01
   1.023  0.427E-01  0.427E-01
   1.033  0.392E-01  0.392E-01
   1.043  0.357E-01  0.357E-01
   1.053  0.321E-01  0.321E-01
   1.063  0.285E-01  0.285E-01
   1.073  0.251E-01  0.251E-01
   1.083  0.218E-01  0.218E-01
   1.093  0.188E-01  0.188E-01
   1.103  0.160E-01  0.160E-01
   1.113  0.135E-01  0.135E-01
   1.123  0.113E-01  0.113E-01
   1.133  0.931E-02  0.931E-02
   1.143  0.762E-02  0.762E-02
   1.153  0.620E-02  0.620E-02
   1.163  0.501E-02  0.501E-02
   1.173  0.406E-02  0.406E-02
   1.183  0.331E-02  0.331E-02
   1.193  0.277E-02  0.277E-02
   1.203  0.241E-02  0.241E-02
   1.213  0.224E-02  0.224E-02
   1.223  0.225E-02  0.225E-02
   1.233  0.246E-02  0.246E-02
   1.243  0.289E-02  0.289E-02
   1.253  0.355E-02  0.355E-02
   1.263  0.450E-02  0.450E-02
   1.273  0.576E-02  0.576E-02
   1.283  0.740E-02  0.740E-02
   1.293  0.947E-02  0.947E-02
   1.303  0.120E-01  0.120E-01
   1.313  0.152E-01  0.152E-01
   1.323  0.190E-01  0.190E-01
   1.333  0.234E-01  0.234E-01
   1.343  0.287E-01  0.287E-01
   1.353  0.347E-01  0.347E-01
   1.363  0.415E-01  0.415E-01
   1.373  0.492E-01  0.492E-01
   1.383  0.577E-01  0.577E-01
   1.393  0.669E-01  0.669E-01
   1.403  0.767E-01  0.767E-01
   1.413  0.870E-01  0.870E-01
   1.423  0.977E-01  0.977E-01
   1.433  0.109E+00  0.109E+00
   1.443  0.119E+00  0.119E+00
   1.453  0.130E+00  0.130E+00
   1.463  0.139E+00  0.139E+00
   1.473  0.148E+00  0.148E+00
   1.483  0.156E+00  0.156E+00
   1.493  0.162E+00  0.162E+00
   1.503  0.167E+00  0.167E+00
   1.513  0.170E+00  0.170E+00
   1.523  0.172E+00  0.172E+00
   1.533  0.171E+00  0.171E+00
   1.543  0.169E+00  0.169E+00
   1.553  0.165E+00  0.165E+00
   1.563  0.159E+00  0.159E+00
   1.573  0.152E+00  0.152E+00
   1.583  0.144E+00  0.144E+00
   1.593  0.134E+00  0.134E+00
   1.603  0.124E+00  0.124E+00
   1.613  0.114E+00  0.114E+00
   1.623  0.103E+00  0.103E+00
   1.633  0.922E-01  0.922E-01
   1.643  0.817E-01  0.817E-01
   1.653  0.717E-01  0.717E-01
   1.663  0.622E-01  0.622E-01
   1.673  0.535E-01  0.535E-01
   1.683  0.455E-01  0.455E-01
   1.693  0.384E-01  0.384E-01
   1.703  0.322E-01  0.322E-01
   1.713  0.268E-01  0.268E-01
   1.723  0.223E-01  0.223E-01
   1.733  0.185E-01  0.185E-01
   1.743  0.155E-01  0.155E-01
   1.753  0.131E-01  0.131E-01
   1.763  0.114E-01  0.114E-01
   1.773  0.103E-01  0.103E-01
   1.783  0.968E-02  0.968E-02
   1.793  0.952E-02  0.952E-02
   1.803  0.976E-02  0.976E-02
   1.813  0.104E-01  0.104E-01
   1.823  0.113E-01  0.113E-01
   1.833  0.125E-01  0.125E-01
   1.843  0.139E-01  0.139E-01
   1.853  0.154E-01  0.154E-01
   1.863  0.171E-01  0.171E-01
   1.873  0.189E-01  0.189E-01
   1.883  0.208E-01  0.208E-01
   1.893  0.226E-01  0.226E-01
   1.903  0.243E-01  0.243E-01
   1.913  0.259E-01  0.259E-01
   1.923  0.274E-01  0.274E-01
   1.933  0.287E-01  0.287E-01
   1.943  0.298E-01  0.298E-01
   1.953  0.307E-01  0.307E-01
   1.963  0.314E-01  0.314E-01
   1.973  0.318E-01  0.318E-01
   1.983  0.321E-01  0.321E-01
   1.993  0.322E-01  0.322E-01
   2.003  0.323E-01  0.323E-01
   2.013  0.323E-01  0.323E-01
   2.023  0.323E-01  0.323E-01
   2.033  0.325E-01  0.325E-01
   2.043  0.329E-01  0.329E-01
   2.053  0.335E-01  0.335E-01
   2.063  0.345E-01  0.345E-01
   2.073  0.359E-01  0.359E-01
   2.083  0.377E-01  0.377E-01
   2.093  0.400E-01  0.400E-01
   2.103  0.428E-01  0.428E-01
   2.113  0.461E-01  0.461E-01
   2.123  0.498E-01  0.498E-01
   2.133  0.538E-01  0.538E-01
   2.143  0.582E-01  0.582E-01
   2.153  0.627E-01  0.627E-01
   2.163  0.674E-01  0.674E-01
   2.173  0.720E-01  0.720E-01
   2.183  0.765E-01  0.765E-01
   2.193  0.808E-01  0.808E-01
   2.203  0.847E-01  0.847E-01
   2.213  0.881E-01  0.881E-01
   2.223  0.909E-01  0.909E-01
   2.233  0.932E-01  0.932E-01
   2.243  0.948E-01  0.948E-01
   2.253  0.958E-01  0.958E-01
   2.263  0.961E-01  0.961E-01
   2.273  0.958E-01  0.958E-01
   2.283  0.948E-01  0.948E-01
   2.293  0.934E-01  0.934E-01
   2.303  0.914E-01  0.914E-01
   2.313  0.890E-01  0.890E-01
   2.323  0.862E-01  0.862E-01
   2.333  0.832E-01  0.832E-01
   2.343  0.799E-01  0.799E-01
   2.353  0.764E-01  0.764E-01
   2.363  0.728E-01  0.728E-01
   2.373  0.691E-01  0.691E-01
   2.383  0.653E-01  0.653E-01
   2.393  0.615E-01  0.615E-01
   2.403  0.576E-01  0.576E-01
   2.413  0.538E-01  0.538E-01
   2.423  0.499E-01  0.499E-01
   2.433  0.461E-01  0.461E-01
   2.443  0.423E-01  0.423E-01
   2.453  0.386E-01  0.386E-01
   2.463  0.351E-01  0.351E-01
   2.473  0.316E-01  0.316E-01
   2.483  0.283E-01  0.283E-01
   2.493  0.251E-01  0.251E-01
   2.503  0.221E-01  0.221E-01
   2.513  0.193E-01  0.193E-01
   2.523  0.167E-01  0.167E-01
   2.533  0.144E-01  0.144E-01
   2.543  0.123E-01  0.123E-01
   2.553  0.104E-01  0.104E-01
   2.563  0.868E-02  0.868E-02
   2.573  0.723E-02  0.723E-02
   2.583  0.599E-02  0.599E-02
   2.593  0.495E-02  0.495E-02
   2.603  0.410E-02  0.410E-02
   2.613  0.344E-02  0.344E-02
   2.623  0.294E-02  0.294E-02
   2.633  0.262E-02  0.262E-02
   2.643  0.246E-02  0.246E-02
   2.653  0.246E-02  0.246E-02
   2.663  0.263E-02  0.263E-02
   2.673  0.297E-02  0.297E-02
   2.683  0.350E-02  0.350E-02
   2.693  0.422E-02  0.422E-02
   2.703  0.516E-02  0.516E-02
   2.713  0.633E-02  0.633E-02
   2.723  0.774E-02  0.774E-02
   2.733  0.942E-02  0.942E-02
   2.743  0.114E-01  0.114E-01
   2.753  0.136E-01  0.136E-01
   2.763  0.161E-01  0.161E-01
   2.773  0.189E-01  0.189E-01
   2.783  0.219E-01  0.219E-01
   2.793  0.252E-01  0.252E-01
   2.803  0.286E-01  0.286E-01
   2.813  0.321E-01  0.321E-01
   2.823  0.357E-01  0.357E-01
   2.833  0.393E-01  0.393E-01
   2.843  0.428E-01  0.428E-01
   2.853  0.461E-01  0.461E-01
   2.863  0.491E-01  0.491E-01
   2.873  0.518E-01  0.518E-01
   2.883  0.541E-01  0.541E-01
   2.893  0.559E-01  0.559E-01
   2.903  0.573E-01  0.573E-01
   2.913  0.581E-01  0.581E-01
   2.923  0.584E-01  0.584E-01
   2.933  0.582E-01  0.582E-01
   2.943  0.576E-01  0.576E-01
   2.953  0.566E-01  0.566E-01
   2.963  0.553E-01  0.553E-01
   2.973  0.538E-01  0.538E-01
   2.983  0.522E-01  0.522E-01
   2.993  0.507E-01  0.507E-01
   3.003  0.493E-01  0.493E-01
   3.013  0.481E-01  0.481E-01
   3.023  0.473E-01  0.473E-01
   3.033  0.468E-01  0.468E-01
   3.043  0.468E-01  0.468E-01
   3.053  0.472E-01  0.472E-01
   3.063  0.481E-01  0.481E-01
   3.073  0.494E-01  0.494E-01
   3.083  0.511E-01  0.511E-01
   3.093  0.531E-01  0.531E-01
   3.103  0.553E-01  0.553E-01
   3.113  0.576E-01  0.576E-01
   3.123  0.599E-01  0.599E-01
   3.133  0.621E-01  0.621E-01
   3.143  0.639E-01  0.639E-01
   3.153  0.654E-01  0.654E-01
   3.163  0.665E-01  0.665E-01
   3.173  0.670E-01  0.670E-01
   3.183  0.669E-01  0.669E-01
   3.193  0.662E-01  0.662E-01
   3.203  0.649E-01  0.649E-01
   3.213  0.630E-01  0.630E-01
   3.223  0.606E-01  0.606E-01
   3.233  0.577E-01  0.577E-01
   3.243  0.543E-01  0.543E-01
   3.253  0.507E-01  0.507E-01
   3.263  0.469E-01  0.469E-01
   3.273  0.429E-01  0.429E-01
   3.283  0.390E-01  0.390E-01
   3.293  0.352E-01  0.352E-01
   3.303  0.316E-01  0.316E-01
   3.313  0.283E-01  0.283E-01
   3.323  0.254E-01  0.254E-01
   3.333  0.228E-01  0.228E-01
   3.343  0.208E-01  0.208E-01
   3.353  0.192E-01  0.192E-01
   3.363  0.182E-01  0.182E-01
   3.373  0.177E-01  0.177E-01
   3.383  0.177E-01  0.177E-01
   3.393  0.183E-01  0.183E-01
   3.403  0.193E-01  0.193E-01
   3.413  0.209E-01  0.209E-01
   3.423  0.229E-01  0.229E-01
   3.433  0.253E-01  0.253E-01
   3.443  0.280E-01  0.280E-01
   3.453  0.309E-01  0.309E-01
   3.463  0.341E-01  0.341E-01
   3.473  0.373E-01  0.373E-01
   3.483  0.406E-01  0.406E-01
   3.493  0.437E-01  0.437E-01
   3.503  0.467E-01  0.467E-01
   3.513  0.494E-01  0.494E-01
   3.523  0.518E-01  0.518E-01
   3.533  0.537E-01  0.537E-01
   3.543  0.552E-01  0.552E-01
   3.553  0.562E-01  0.562E-01
   3.563  0.566E-01  0.566E-01
   3.573  0.565E-01  0.565E-01
   3.583  0.558E-01  0.558E-01
   3.593  0.547E-01  0.547E-01
   3.603  0.531E-01  0.531E-01
   3.613  0.511E-01  0.511E-01
   3.623  0.488E-01  0.488E-01
   3.633  0.463E-01  0.463E-01
   3.643  0.437E-01  0.437E-01
   3.653  0.410E-01  0.410E-01
   3.663  0.385E-01  0.385E-01
   3.673  0.360E-01  0.360E-01
   3.683  0.339E-01  0.339E-01
   3.693  0.320E-01  0.320E-01
   3.703  0.306E-01  0.306E-01
   3.713  0.296E-01  0.296E-01
   3.723  0.292E-01  0.292E-01
   3.733  0.293E-01  0.293E-01
   3.743  0.300E-01  0.300E-01
   3.753  0.312E-01  0.312E-01
   3.763  0.331E-01  0.331E-01
   3.773  0.355E-01  0.355E-01
   3.783  0.385E-01  0.385E-01
   3.793  0.419E-01  0.419E-01
   3.803  0.458E-01  0.458E-01
   3.813  0.500E-01  0.500E-01
   3.823  0.544E-01  0.544E-01
   3.833  0.590E-01  0.590E-01
   3.843  0.636E-01  0.636E-01
   3.853  0.681E-01  0.681E-01
   3.863  0.724E-01  0.724E-01
   3.873  0.763E-01  0.763E-01
   3.883  0.799E-01  0.799E-01
   3.893  0.829E-01  0.829E-01
   3.903  0.852E-01  0.852E-01
   3.913  0.869E-01  0.869E-01
   3.923  0.878E-01  0.878E-01
   3.933  0.879E-01  0.879E-01
   3.943  0.872E-01  0.872E-01
   3.953  0.857E-01  0.857E-01
   3.963  0.835E-01  0.835E-01
   3.973  0.805E-01  0.805E-01
   3.983  0.770E-01  0.770E-01
   3.993  0.729E-01  0.729E-01
   4.003  0.683E-01  0.683E-01
   4.013  0.635E-01  0.635E-01
   4.023  0.584E-01  0.584E-01
   4.033  0.532E-01  0.532E-01
   4.043  0.480E-01  0.480E-01
   4.053  0.429E-01  0.429E-01
   4.063  0.380E-01  0.380E-01
   4.073  0.333E-01  0.333E-01
   4.083  0.289E-01  0.289E-01
   4.093  0.248E-01  0.248E-01
   4.103  0.211E-01  0.211E-01
   4.113  0.178E-01  0.178E-01
   4.123  0.148E-01  0.148E-01
   4.133  0.122E-01  0.122E-01
   4.143  0.100E-01  0.100E-01
   4.153  0.809E-02  0.809E-02
   4.163  0.648E-02  0.648E-02
   4.173  0.513E-02  0.513E-02
   4.183  0.403E-02  0.403E-02
   4.193  0.313E-02  0.313E-02
   4.203  0.240E-02  0.240E-02
   4.213  0.183E-02  0.183E-02
   4.223  0.137E-02  0.137E-02
   4.233  0.102E-02  0.102E-02
   4.243  0.754E-03  0.754E-03
   4.253  0.550E-03  0.550E-03
   4.263  0.397E-03  0.397E-03
   4.273  0.284E-03  0.284E-03
   4.283  0.200E-03  0.200E-03
   4.293  0.140E-03  0.140E-03
   4.303  0.970E-04  0.970E-04
   4.313  0.664E-04  0.664E-04
   4.323  0.450E-04  0.450E-04
   4.333  0.302E-04  0.302E-04
   4.343  0.200E-04  0.200E-04
   4.353  0.131E-04  0.131E-04
   4.363  0.852E-05  0.852E-05
   4.373  0.547E-05  0.547E-05
   4.383  0.348E-05  0.348E-05
   4.393  0.219E-05  0.219E-05
   4.403  0.136E-05  0.136E-05
   4.413  0.838E-06  0.838E-06
   4.423  0.511E-06  0.511E-06
   4.433  0.308E-06  0.308E-06
   4.443  0.184E-06  0.184E-06
   4.453  0.109E-06  0.109E-06
   4.463  0.646E-07  0.646E-07
   4.473  0.383E-07  0.383E-07
   4.483  0.232E-07  0.232E-07
   4.493  0.147E-07  0.147E-07
   4.503  0.102E-07  0.102E-07
   4.513  0.807E-08  0.807E-08
   4.523  0.741E-08  0.741E-08
   4.533  0.765E-08  0.765E-08
   4.543  0.848E-08  0.848E-08
   4.553  0.975E-08  0.975E-08
   4.563  0.114E-07  0.114E-07
   4.573  0.133E-07  0.133E-07
   4.583  0.154E-07  0.154E-07
   4.593  0.178E-07  0.178E-07
   4.603  0.205E-07  0.205E-07
   4.613  0.233E-07  0.233E-07
   4.623  0.264E-07  0.264E-07
   4.633  0.296E-07  0.296E-07
   4.643  0.329E-07  0.329E-07
   4.653  0.363E-07  0.363E-07
   4.663  0.398E-07  0.398E-07
   4.673  0.432E-07  0.432E-07
   4.683  0.465E-07  0.465E-07
   4.693  0.497E-07  0.497E-07
   4.703  0.526E-07  0.526E-07
   4.713  0.554E-07  0.554E-07
   4.723  0.578E-07  0.578E-07
   4.733  0.598E-07  0.598E-07
   4.743  0.615E-07  0.615E-07
   4.753  0.628E-07  0.628E-07
   4.763  0.637E-07  0.637E-07
   4.773  0.643E-07  0.643E-07
   4.783  0.645E-07  0.645E-07
   4.793  0.645E-07  0.645E-07
   4.803  0.642E-07  0.642E-07
   4.813  0.637E-07  0.637E-07
   4.823  0.631E-07  0.631E-07
   4.833  0.625E-07  0.625E-07
   4.843  0.618E-07  0.618E-07
   4.853  0.611E-07  0.611E-07
   4.863  0.605E-07  0.605E-07
   4.873  0.600E-07  0.600E-07
   4.883  0.594E-07  0.594E-07
   4.893  0.589E-07  0.589E-07
   4.903  0.584E-07  0.584E-07
   4.913  0.579E-07  0.579E-07
   4.923  0.573E-07  0.573E-07
   4.933  0.565E-07  0.565E-07
   4.943  0.555E-07  0.555E-07
   4.953  0.543E-07  0.543E-07
   4.963  0.529E-07  0.529E-07
   4.973  0.512E-07  0.512E-07
   4.983  0.492E-07  0.492E-07
   4.993  0.469E-07  0.469E-07
   5.003  0.443E-07  0.443E-07
   5.013  0.416E-07  0.416E-07
   5.023  0.387E-07  0.387E-07
   5.033  0.356E-07  0.356E-07
   5.043  0.325E-07  0.325E-07
   5.053  0.294E-07  0.294E-07
   5.063  0.263E-07  0.263E-07
   5.073  0.233E-07  0.233E-07
   5.083  0.204E-07  0.204E-07
   5.093  0.177E-07  0.177E-07
   5.103  0.152E-07  0.152E-07
   5.113  0.129E-07  0.129E-07
   5.123  0.109E-07  0.109E-07
   5.133  0.906E-08  0.906E-08
   5.143  0.748E-08  0.748E-08
   5.153  0.611E-08  0.611E-08
   5.163  0.495E-08  0.495E-08
   5.173  0.398E-08  0.398E-08
   5.183  0.319E-08  0.319E-08
   5.193  0.255E-08  0.255E-08
   5.203  0.205E-08  0.205E-08
   5.213  0.167E-08  0.167E-08
   5.223  0.139E-08  0.139E-08
   5.233  0.120E-08  0.120E-08
   5.243  0.109E-08  0.109E-08
   5.253  0.104E-08  0.104E-08
   5.263  0.106E-08  0.106E-08
   5.273  0.113E-08  0.113E-08
   5.283  0.125E-08  0.125E-08
   5.293  0.142E-08  0.142E-08
   5.303  0.164E-08  0.164E-08
   5.313  0.189E-08  0.189E-08
   5.323  0.219E-08  0.219E-08
   5.333  0.253E-08  0.253E-08
   5.343  0.290E-08  0.290E-08
   5.353  0.332E-08  0.332E-08
   5.363  0.376E-08  0.376E-08
   5.373  0.423E-08  0.423E-08
   5.383  0.472E-08  0.472E-08
   5.393  0.523E-08  0.523E-08
   5.403  0.573E-08  0.573E-08
   5.413  0.624E-08  0.624E-08
   5.423  0.673E-08  0.673E-08
   5.433  0.718E-08  0.718E-08
   5.443  0.760E-08  0.760E-08
   5.453  0.797E-08  0.797E-08
   5.463  0.828E-08  0.828E-08
   5.473  0.851E-08  0.851E-08
   5.483  0.867E-08  0.867E-08
   5.493  0.874E-08  0.874E-08
   5.503  0.873E-08  0.873E-08
   5.513  0.863E-08  0.863E-08
   5.523  0.844E-08  0.844E-08
   5.533  0.817E-08  0.817E-08
   5.543  0.783E-08  0.783E-08
   5.553  0.743E-08  0.743E-08
   5.563  0.698E-08  0.698E-08
   5.573  0.648E-08  0.648E-08
   5.583  0.596E-08  0.596E-08
   5.593  0.543E-08  0.543E-08
   5.603  0.489E-08  0.489E-08
   5.613  0.436E-08  0.436E-08
   5.623  0.386E-08  0.386E-08
   5.633  0.338E-08  0.338E-08
   5.643  0.293E-08  0.293E-08
   5.653  0.253E-08  0.253E-08
   5.663  0.218E-08  0.218E-08
   5.673  0.187E-08  0.187E-08
   5.683  0.161E-08  0.161E-08
   5.693  0.141E-08  0.141E-08
   5.703  0.126E-08  0.126E-08
   5.713  0.117E-08  0.117E-08
   5.723  0.112E-08  0.112E-08
   5.733  0.113E-08  0.113E-08
   5.743  0.120E-08  0.120E-08
   5.753  0.132E-08  0.132E-08
   5.763  0.149E-08  0.149E-08
   5.773  0.171E-08  0.171E-08
   5.783  0.198E-08  0.198E-08
   5.793  0.231E-08  0.231E-08
   5.803  0.268E-08  0.268E-08
   5.813  0.309E-08  0.309E-08
   5.823  0.354E-08  0.354E-08
   5.833  0.402E-08  0.402E-08
   5.843  0.453E-08  0.453E-08
   5.853  0.504E-08  0.504E-08
   5.863  0.556E-08  0.556E-08
   5.873  0.607E-08  0.607E-08
   5.883  0.655E-08  0.655E-08
   5.893  0.700E-08  0.700E-08
   5.903  0.740E-08  0.740E-08
   5.913  0.774E-08  0.774E-08
   5.923  0.800E-08  0.800E-08
   5.933  0.819E-08  0.819E-08
   5.943  0.829E-08  0.829E-08
   5.953  0.830E-08  0.830E-08
   5.963  0.822E-08  0.822E-08
   5.973  0.806E-08  0.806E-08
   5.983  0.781E-08  0.781E-08
   5.993  0.749E-08  0.749E-08
   6.003  0.711E-08  0.711E-08
   6.013  0.667E-08  0.667E-08
   6.023  0.620E-08  0.620E-08
   6.033  0.569E-08  0.569E-08
   6.043  0.517E-08  0.517E-08
   6.053  0.465E-08  0.465E-08
   6.063  0.413E-08  0.413E-08
   6.073  0.364E-08  0.364E-08
   6.083  0.316E-08  0.316E-08
   6.093  0.272E-08  0.272E-08
   6.103  0.232E-08  0.232E-08
   6.113  0.195E-08  0.195E-08
   6.123  0.163E-08  0.163E-08
   6.133  0.134E-08  0.134E-08
   6.143  0.110E-08  0.110E-08
   6.153  0.884E-09  0.884E-09
   6.163  0.705E-09  0.705E-09
   6.173  0.557E-09  0.557E-09
   6.183  0.435E-09  0.435E-09
   6.193  0.336E-09  0.336E-09
   6.203  0.257E-09  0.257E-09
   6.213  0.194E-09  0.194E-09
   6.223  0.145E-09  0.145E-09
   6.233  0.108E-09  0.108E-09
   6.243  0.788E-10  0.788E-10
   6.253  0.570E-10  0.570E-10
   6.263  0.409E-10  0.409E-10
   6.273  0.290E-10  0.290E-10
   6.283  0.203E-10  0.203E-10
   6.293  0.141E-10  0.141E-10
   6.303  0.966E-11  0.966E-11
   6.313  0.656E-11  0.656E-11
   6.323  0.440E-11  0.440E-11
   6.333  0.293E-11  0.293E-11
   6.343  0.192E-11  0.192E-11
   6.353  0.125E-11  0.125E-11
   6.363  0.804E-12  0.804E-12
