#  E (eV)   dos(E)     Int dos(E) EFermi =    6.208 eV
  -5.873  0.0000E+00  0.0000E+00
  -5.863  0.1239E-03  0.4129E-06
  -5.853  0.4955E-03  0.3303E-05
  -5.843  0.1115E-02  0.1115E-04
  -5.833  0.1982E-02  0.2643E-04
  -5.823  0.3097E-02  0.5162E-04
  -5.813  0.4460E-02  0.8919E-04
  -5.803  0.6070E-02  0.1416E-03
  -5.793  0.7928E-02  0.2114E-03
  -5.783  0.1003E-01  0.3010E-03
  -5.773  0.1239E-01  0.4129E-03
  -5.763  0.1499E-01  0.5496E-03
  -5.753  0.1784E-01  0.7135E-03
  -5.743  0.2094E-01  0.9072E-03
  -5.733  0.2428E-01  0.1133E-02
  -5.723  0.2787E-01  0.1394E-02
  -5.713  0.3171E-01  0.1691E-02
  -5.703  0.3580E-01  0.2029E-02
  -5.693  0.4014E-01  0.2408E-02
  -5.683  0.4472E-01  0.2832E-02
  -5.673  0.4955E-01  0.3303E-02
  -5.663  0.5463E-01  0.3824E-02
  -5.653  0.5996E-01  0.4397E-02
  -5.643  0.6553E-01  0.5024E-02
  -5.633  0.7135E-01  0.5708E-02
  -5.623  0.7742E-01  0.6452E-02
  -5.613  0.8374E-01  0.7258E-02
  -5.603  0.1289E+00  0.8278E-02
  -5.593  0.1758E+00  0.9811E-02
  -5.583  0.2103E+00  0.1175E-01
  -5.573  0.2324E+00  0.1398E-01
  -5.563  0.2422E+00  0.1636E-01
  -5.553  0.2396E+00  0.1878E-01
  -5.543  0.2246E+00  0.2111E-01
  -5.533  0.1972E+00  0.2323E-01
  -5.523  0.1575E+00  0.2501E-01
  -5.513  0.1545E+00  0.2655E-01
  -5.503  0.1575E+00  0.2811E-01
  -5.493  0.1606E+00  0.2970E-01
  -5.483  0.1637E+00  0.3132E-01
  -5.473  0.1668E+00  0.3297E-01
  -5.463  0.1699E+00  0.3465E-01
  -5.453  0.1731E+00  0.3637E-01
  -5.443  0.1762E+00  0.3811E-01
  -5.433  0.1794E+00  0.3989E-01
  -5.423  0.1827E+00  0.4170E-01
  -5.413  0.1859E+00  0.4355E-01
  -5.403  0.1892E+00  0.4542E-01
  -5.393  0.1925E+00  0.4733E-01
  -5.383  0.1958E+00  0.4927E-01
  -5.373  0.1991E+00  0.5125E-01
  -5.363  0.2025E+00  0.5325E-01
  -5.353  0.2059E+00  0.5530E-01
  -5.343  0.2093E+00  0.5737E-01
  -5.333  0.2127E+00  0.5948E-01
  -5.323  0.2162E+00  0.6163E-01
  -5.313  0.2197E+00  0.6380E-01
  -5.303  0.2232E+00  0.6602E-01
  -5.293  0.2267E+00  0.6827E-01
  -5.283  0.2302E+00  0.7055E-01
  -5.273  0.2338E+00  0.7287E-01
  -5.263  0.2374E+00  0.7523E-01
  -5.253  0.2410E+00  0.7762E-01
  -5.243  0.2447E+00  0.8005E-01
  -5.233  0.2483E+00  0.8251E-01
  -5.223  0.2520E+00  0.8502E-01
  -5.213  0.2557E+00  0.8756E-01
  -5.203  0.2595E+00  0.9013E-01
  -5.193  0.2632E+00  0.9274E-01
  -5.183  0.2670E+00  0.9540E-01
  -5.173  0.2725E+00  0.9809E-01
  -5.163  0.2784E+00  0.1008E+00
  -5.153  0.2842E+00  0.1037E+00
  -5.143  0.2897E+00  0.1065E+00
  -5.133  0.2951E+00  0.1095E+00
  -5.123  0.3002E+00  0.1124E+00
  -5.113  0.3052E+00  0.1155E+00
  -5.103  0.3100E+00  0.1185E+00
  -5.093  0.3145E+00  0.1217E+00
  -5.083  0.3189E+00  0.1248E+00
  -5.073  0.3230E+00  0.1280E+00
  -5.063  0.3270E+00  0.1313E+00
  -5.053  0.3308E+00  0.1346E+00
  -5.043  0.3343E+00  0.1379E+00
  -5.033  0.3377E+00  0.1413E+00
  -5.023  0.3408E+00  0.1446E+00
  -5.013  0.3438E+00  0.1481E+00
  -5.003  0.3466E+00  0.1515E+00
  -4.993  0.3491E+00  0.1550E+00
  -4.983  0.3515E+00  0.1585E+00
  -4.973  0.3536E+00  0.1620E+00
  -4.963  0.3556E+00  0.1656E+00
  -4.953  0.3573E+00  0.1691E+00
  -4.943  0.3589E+00  0.1727E+00
  -4.933  0.3603E+00  0.1763E+00
  -4.923  0.3614E+00  0.1799E+00
  -4.913  0.3548E+00  0.1835E+00
  -4.903  0.3495E+00  0.1870E+00
  -4.893  0.3457E+00  0.1905E+00
  -4.883  0.3432E+00  0.1939E+00
  -4.873  0.3422E+00  0.1974E+00
  -4.863  0.3426E+00  0.2008E+00
  -4.853  0.3444E+00  0.2042E+00
  -4.843  0.3467E+00  0.2077E+00
  -4.833  0.3491E+00  0.2112E+00
  -4.823  0.3515E+00  0.2147E+00
  -4.813  0.3540E+00  0.2182E+00
  -4.803  0.3565E+00  0.2217E+00
  -4.793  0.3590E+00  0.2253E+00
  -4.783  0.3615E+00  0.2289E+00
  -4.773  0.3640E+00  0.2326E+00
  -4.763  0.3666E+00  0.2362E+00
  -4.753  0.3692E+00  0.2399E+00
  -4.743  0.3718E+00  0.2436E+00
  -4.733  0.3745E+00  0.2473E+00
  -4.723  0.3772E+00  0.2511E+00
  -4.713  0.3799E+00  0.2549E+00
  -4.703  0.3826E+00  0.2587E+00
  -4.693  0.3854E+00  0.2625E+00
  -4.683  0.3881E+00  0.2664E+00
  -4.673  0.3909E+00  0.2703E+00
  -4.663  0.3938E+00  0.2742E+00
  -4.653  0.3966E+00  0.2782E+00
  -4.643  0.3995E+00  0.2821E+00
  -4.633  0.4024E+00  0.2861E+00
  -4.623  0.4053E+00  0.2902E+00
  -4.613  0.4083E+00  0.2943E+00
  -4.603  0.4113E+00  0.2984E+00
  -4.593  0.4143E+00  0.3025E+00
  -4.583  0.4173E+00  0.3066E+00
  -4.573  0.4204E+00  0.3108E+00
  -4.563  0.4235E+00  0.3150E+00
  -4.553  0.4266E+00  0.3193E+00
  -4.543  0.4297E+00  0.3236E+00
  -4.533  0.4329E+00  0.3279E+00
  -4.523  0.4361E+00  0.3322E+00
  -4.513  0.4393E+00  0.3366E+00
  -4.503  0.4425E+00  0.3410E+00
  -4.493  0.4458E+00  0.3455E+00
  -4.483  0.4491E+00  0.3499E+00
  -4.473  0.4524E+00  0.3544E+00
  -4.463  0.4557E+00  0.3590E+00
  -4.453  0.4590E+00  0.3636E+00
  -4.443  0.4623E+00  0.3682E+00
  -4.433  0.4656E+00  0.3728E+00
  -4.423  0.4690E+00  0.3775E+00
  -4.413  0.4723E+00  0.3822E+00
  -4.403  0.4757E+00  0.3869E+00
  -4.393  0.4790E+00  0.3917E+00
  -4.383  0.4824E+00  0.3965E+00
  -4.373  0.4857E+00  0.4013E+00
  -4.363  0.4891E+00  0.4062E+00
  -4.353  0.4925E+00  0.4111E+00
  -4.343  0.4959E+00  0.4161E+00
  -4.333  0.4992E+00  0.4210E+00
  -4.323  0.5026E+00  0.4261E+00
  -4.313  0.5060E+00  0.4311E+00
  -4.303  0.5094E+00  0.4362E+00
  -4.293  0.5129E+00  0.4413E+00
  -4.283  0.5171E+00  0.4464E+00
  -4.273  0.5215E+00  0.4516E+00
  -4.263  0.5258E+00  0.4569E+00
  -4.253  0.5300E+00  0.4621E+00
  -4.243  0.5340E+00  0.4675E+00
  -4.233  0.5379E+00  0.4728E+00
  -4.223  0.5416E+00  0.4782E+00
  -4.213  0.5452E+00  0.4837E+00
  -4.203  0.5487E+00  0.4891E+00
  -4.193  0.5521E+00  0.4946E+00
  -4.183  0.5553E+00  0.5002E+00
  -4.173  0.5590E+00  0.5057E+00
  -4.163  0.5631E+00  0.5113E+00
  -4.153  0.5673E+00  0.5170E+00
  -4.143  0.5715E+00  0.5227E+00
  -4.133  0.5758E+00  0.5284E+00
  -4.123  0.5802E+00  0.5342E+00
  -4.113  0.5846E+00  0.5400E+00
  -4.103  0.5890E+00  0.5459E+00
  -4.093  0.5936E+00  0.5518E+00
  -4.083  0.5982E+00  0.5578E+00
  -4.073  0.6028E+00  0.5638E+00
  -4.063  0.6075E+00  0.5698E+00
  -4.053  0.6123E+00  0.5759E+00
  -4.043  0.6171E+00  0.5821E+00
  -4.033  0.6220E+00  0.5883E+00
  -4.023  0.6270E+00  0.5945E+00
  -4.013  0.6320E+00  0.6008E+00
  -4.003  0.6371E+00  0.6072E+00
  -3.993  0.6422E+00  0.6136E+00
  -3.983  0.6474E+00  0.6200E+00
  -3.973  0.6527E+00  0.6265E+00
  -3.963  0.6580E+00  0.6331E+00
  -3.953  0.6634E+00  0.6397E+00
  -3.943  0.6688E+00  0.6463E+00
  -3.933  0.6743E+00  0.6530E+00
  -3.923  0.6852E+00  0.6598E+00
  -3.913  0.7040E+00  0.6668E+00
  -3.903  0.7202E+00  0.6739E+00
  -3.893  0.7339E+00  0.6812E+00
  -3.883  0.7450E+00  0.6886E+00
  -3.873  0.7536E+00  0.6961E+00
  -3.863  0.7596E+00  0.7036E+00
  -3.853  0.7631E+00  0.7112E+00
  -3.843  0.7640E+00  0.7189E+00
  -3.833  0.7623E+00  0.7265E+00
  -3.823  0.7610E+00  0.7341E+00
  -3.813  0.7651E+00  0.7417E+00
  -3.803  0.7692E+00  0.7494E+00
  -3.793  0.7733E+00  0.7571E+00
  -3.783  0.7774E+00  0.7649E+00
  -3.773  0.7815E+00  0.7727E+00
  -3.763  0.7856E+00  0.7805E+00
  -3.753  0.7898E+00  0.7884E+00
  -3.743  0.7939E+00  0.7963E+00
  -3.733  0.7980E+00  0.8043E+00
  -3.723  0.8021E+00  0.8123E+00
  -3.713  0.8062E+00  0.8203E+00
  -3.703  0.8104E+00  0.8284E+00
  -3.693  0.8145E+00  0.8365E+00
  -3.683  0.8186E+00  0.8447E+00
  -3.673  0.8228E+00  0.8529E+00
  -3.663  0.8269E+00  0.8611E+00
  -3.653  0.8311E+00  0.8694E+00
  -3.643  0.8352E+00  0.8778E+00
  -3.633  0.8394E+00  0.8861E+00
  -3.623  0.8436E+00  0.8946E+00
  -3.613  0.8477E+00  0.9030E+00
  -3.603  0.8519E+00  0.9115E+00
  -3.593  0.8561E+00  0.9200E+00
  -3.583  0.8603E+00  0.9286E+00
  -3.573  0.8644E+00  0.9373E+00
  -3.563  0.8684E+00  0.9459E+00
  -3.553  0.8723E+00  0.9546E+00
  -3.543  0.8761E+00  0.9634E+00
  -3.533  0.8798E+00  0.9721E+00
  -3.523  0.8835E+00  0.9810E+00
  -3.513  0.8870E+00  0.9898E+00
  -3.503  0.8904E+00  0.9987E+00
  -3.493  0.8938E+00  0.1008E+01
  -3.483  0.8970E+00  0.1017E+01
  -3.473  0.9002E+00  0.1026E+01
  -3.463  0.9033E+00  0.1035E+01
  -3.453  0.9062E+00  0.1044E+01
  -3.443  0.9091E+00  0.1053E+01
  -3.433  0.9119E+00  0.1062E+01
  -3.423  0.9146E+00  0.1071E+01
  -3.413  0.9172E+00  0.1080E+01
  -3.403  0.9197E+00  0.1089E+01
  -3.393  0.9221E+00  0.1098E+01
  -3.383  0.9244E+00  0.1108E+01
  -3.373  0.9188E+00  0.1119E+01
  -3.363  0.9167E+00  0.1128E+01
  -3.353  0.9147E+00  0.1137E+01
  -3.343  0.9127E+00  0.1146E+01
  -3.333  0.9109E+00  0.1156E+01
  -3.323  0.9092E+00  0.1165E+01
  -3.313  0.9084E+00  0.1174E+01
  -3.303  0.9084E+00  0.1183E+01
  -3.293  0.9092E+00  0.1192E+01
  -3.283  0.9109E+00  0.1201E+01
  -3.273  0.9134E+00  0.1210E+01
  -3.263  0.9168E+00  0.1219E+01
  -3.253  0.9210E+00  0.1228E+01
  -3.243  0.9260E+00  0.1238E+01
  -3.233  0.9319E+00  0.1247E+01
  -3.223  0.9387E+00  0.1256E+01
  -3.213  0.9463E+00  0.1266E+01
  -3.203  0.9547E+00  0.1275E+01
  -3.193  0.9640E+00  0.1285E+01
  -3.183  0.9741E+00  0.1295E+01
  -3.173  0.9851E+00  0.1304E+01
  -3.163  0.9969E+00  0.1314E+01
  -3.153  0.1010E+01  0.1324E+01
  -3.143  0.8599E+00  0.1333E+01
  -3.133  0.8564E+00  0.1342E+01
  -3.123  0.8530E+00  0.1350E+01
  -3.113  0.8496E+00  0.1359E+01
  -3.103  0.8463E+00  0.1367E+01
  -3.093  0.8430E+00  0.1376E+01
  -3.083  0.8397E+00  0.1384E+01
  -3.073  0.8365E+00  0.1393E+01
  -3.063  0.8334E+00  0.1401E+01
  -3.053  0.8302E+00  0.1409E+01
  -3.043  0.8271E+00  0.1418E+01
  -3.033  0.8240E+00  0.1426E+01
  -3.023  0.8210E+00  0.1434E+01
  -3.013  0.8180E+00  0.1442E+01
  -3.003  0.8151E+00  0.1450E+01
  -2.993  0.8122E+00  0.1459E+01
  -2.983  0.8093E+00  0.1467E+01
  -2.973  0.8065E+00  0.1475E+01
  -2.963  0.8037E+00  0.1483E+01
  -2.953  0.8009E+00  0.1491E+01
  -2.943  0.7982E+00  0.1499E+01
  -2.933  0.7955E+00  0.1507E+01
  -2.923  0.7929E+00  0.1515E+01
  -2.913  0.7903E+00  0.1523E+01
  -2.903  0.7877E+00  0.1531E+01
  -2.893  0.7852E+00  0.1538E+01
  -2.883  0.7827E+00  0.1546E+01
  -2.873  0.7802E+00  0.1554E+01
  -2.863  0.7778E+00  0.1562E+01
  -2.853  0.7754E+00  0.1570E+01
  -2.843  0.7731E+00  0.1577E+01
  -2.833  0.7708E+00  0.1585E+01
  -2.823  0.7685E+00  0.1593E+01
  -2.813  0.7661E+00  0.1600E+01
  -2.803  0.7636E+00  0.1608E+01
  -2.793  0.7611E+00  0.1616E+01
  -2.783  0.7587E+00  0.1623E+01
  -2.773  0.7563E+00  0.1631E+01
  -2.763  0.7539E+00  0.1638E+01
  -2.753  0.7516E+00  0.1646E+01
  -2.743  0.7493E+00  0.1653E+01
  -2.733  0.7470E+00  0.1661E+01
  -2.723  0.7448E+00  0.1668E+01
  -2.713  0.7426E+00  0.1676E+01
  -2.703  0.7404E+00  0.1683E+01
  -2.693  0.7383E+00  0.1691E+01
  -2.683  0.7360E+00  0.1698E+01
  -2.673  0.7332E+00  0.1705E+01
  -2.663  0.7305E+00  0.1713E+01
  -2.653  0.7277E+00  0.1720E+01
  -2.643  0.7248E+00  0.1727E+01
  -2.633  0.7220E+00  0.1734E+01
  -2.623  0.7190E+00  0.1742E+01
  -2.613  0.7156E+00  0.1749E+01
  -2.603  0.7112E+00  0.1756E+01
  -2.593  0.7065E+00  0.1763E+01
  -2.583  0.7015E+00  0.1770E+01
  -2.573  0.6961E+00  0.1777E+01
  -2.563  0.6905E+00  0.1784E+01
  -2.553  0.6845E+00  0.1791E+01
  -2.543  0.6782E+00  0.1798E+01
  -2.533  0.6716E+00  0.1804E+01
  -2.523  0.6647E+00  0.1811E+01
  -2.513  0.6575E+00  0.1818E+01
  -2.503  0.6500E+00  0.1824E+01
  -2.493  0.6421E+00  0.1831E+01
  -2.483  0.6339E+00  0.1837E+01
  -2.473  0.6255E+00  0.1843E+01
  -2.463  0.6167E+00  0.1850E+01
  -2.453  0.6076E+00  0.1856E+01
  -2.443  0.5982E+00  0.1862E+01
  -2.433  0.5884E+00  0.1868E+01
  -2.423  0.5784E+00  0.1874E+01
  -2.413  0.5680E+00  0.1879E+01
  -2.403  0.5573E+00  0.1885E+01
  -2.393  0.5463E+00  0.1890E+01
  -2.383  0.5350E+00  0.1896E+01
  -2.373  0.5234E+00  0.1901E+01
  -2.363  0.5115E+00  0.1906E+01
  -2.353  0.4993E+00  0.1911E+01
  -2.343  0.4867E+00  0.1916E+01
  -2.333  0.4738E+00  0.1921E+01
  -2.323  0.4606E+00  0.1926E+01
  -2.313  0.4471E+00  0.1930E+01
  -2.303  0.4333E+00  0.1935E+01
  -2.293  0.4192E+00  0.1939E+01
  -2.283  0.4048E+00  0.1943E+01
  -2.273  0.3900E+00  0.1947E+01
  -2.263  0.3749E+00  0.1951E+01
  -2.253  0.3596E+00  0.1955E+01
  -2.243  0.3439E+00  0.1958E+01
  -2.233  0.3279E+00  0.1961E+01
  -2.223  0.3115E+00  0.1965E+01
  -2.213  0.2949E+00  0.1968E+01
  -2.203  0.2779E+00  0.1971E+01
  -2.193  0.2607E+00  0.1973E+01
  -2.183  0.2087E+00  0.1976E+01
  -2.173  0.1972E+00  0.1978E+01
  -2.163  0.1860E+00  0.1980E+01
  -2.153  0.1751E+00  0.1981E+01
  -2.143  0.1645E+00  0.1983E+01
  -2.133  0.1543E+00  0.1985E+01
  -2.123  0.1444E+00  0.1986E+01
  -2.113  0.1347E+00  0.1988E+01
  -2.103  0.1254E+00  0.1989E+01
  -2.093  0.1165E+00  0.1990E+01
  -2.083  0.1078E+00  0.1991E+01
  -2.073  0.9944E-01  0.1992E+01
  -2.063  0.9139E-01  0.1993E+01
  -2.053  0.8367E-01  0.1994E+01
  -2.043  0.7626E-01  0.1995E+01
  -2.033  0.6916E-01  0.1996E+01
  -2.023  0.6238E-01  0.1996E+01
  -2.013  0.5591E-01  0.1997E+01
  -2.003  0.4976E-01  0.1997E+01
  -1.993  0.4392E-01  0.1998E+01
  -1.983  0.3840E-01  0.1998E+01
  -1.973  0.3319E-01  0.1999E+01
  -1.963  0.2830E-01  0.1999E+01
  -1.953  0.2372E-01  0.1999E+01
  -1.943  0.1946E-01  0.1999E+01
  -1.933  0.1551E-01  0.2000E+01
  -1.923  0.1188E-01  0.2000E+01
  -1.913  0.8560E-02  0.2000E+01
  -1.903  0.5557E-02  0.2000E+01
  -1.893  0.2868E-02  0.2000E+01
  -1.883  0.4944E-03  0.2000E+01
  -1.873  0.0000E+00  0.2000E+01
  -1.863  0.0000E+00  0.2000E+01
  -1.853  0.0000E+00  0.2000E+01
  -1.843  0.0000E+00  0.2000E+01
  -1.833  0.0000E+00  0.2000E+01
  -1.823  0.0000E+00  0.2000E+01
  -1.813  0.0000E+00  0.2000E+01
  -1.803  0.0000E+00  0.2000E+01
  -1.793  0.0000E+00  0.2000E+01
  -1.783  0.0000E+00  0.2000E+01
  -1.773  0.0000E+00  0.2000E+01
  -1.763  0.0000E+00  0.2000E+01
  -1.753  0.0000E+00  0.2000E+01
  -1.743  0.0000E+00  0.2000E+01
  -1.733  0.0000E+00  0.2000E+01
  -1.723  0.0000E+00  0.2000E+01
  -1.713  0.0000E+00  0.2000E+01
  -1.703  0.0000E+00  0.2000E+01
  -1.693  0.0000E+00  0.2000E+01
  -1.683  0.0000E+00  0.2000E+01
  -1.673  0.0000E+00  0.2000E+01
  -1.663  0.0000E+00  0.2000E+01
  -1.653  0.0000E+00  0.2000E+01
  -1.643  0.0000E+00  0.2000E+01
  -1.633  0.0000E+00  0.2000E+01
  -1.623  0.0000E+00  0.2000E+01
  -1.613  0.0000E+00  0.2000E+01
  -1.603  0.0000E+00  0.2000E+01
  -1.593  0.4946E-03  0.2000E+01
  -1.583  0.2464E-02  0.2000E+01
  -1.573  0.4600E-02  0.2000E+01
  -1.563  0.6903E-02  0.2000E+01
  -1.553  0.9374E-02  0.2000E+01
  -1.543  0.1201E-01  0.2000E+01
  -1.533  0.1482E-01  0.2000E+01
  -1.523  0.1779E-01  0.2001E+01
  -1.513  0.2093E-01  0.2001E+01
  -1.503  0.2423E-01  0.2001E+01
  -1.493  0.2771E-01  0.2001E+01
  -1.483  0.3135E-01  0.2002E+01
  -1.473  0.3515E-01  0.2002E+01
  -1.463  0.3913E-01  0.2002E+01
  -1.453  0.4327E-01  0.2003E+01
  -1.443  0.4758E-01  0.2003E+01
  -1.433  0.5206E-01  0.2004E+01
  -1.423  0.5670E-01  0.2004E+01
  -1.413  0.6151E-01  0.2005E+01
  -1.403  0.6649E-01  0.2005E+01
  -1.393  0.7163E-01  0.2006E+01
  -1.383  0.7694E-01  0.2007E+01
  -1.373  0.8242E-01  0.2008E+01
  -1.363  0.8807E-01  0.2008E+01
  -1.353  0.9388E-01  0.2009E+01
  -1.343  0.9986E-01  0.2010E+01
  -1.333  0.1060E+00  0.2011E+01
  -1.323  0.1123E+00  0.2012E+01
  -1.313  0.1188E+00  0.2014E+01
  -1.303  0.1255E+00  0.2015E+01
  -1.293  0.1323E+00  0.2016E+01
  -1.283  0.1393E+00  0.2018E+01
  -1.273  0.1464E+00  0.2019E+01
  -1.263  0.1537E+00  0.2020E+01
  -1.253  0.1612E+00  0.2022E+01
  -1.243  0.1689E+00  0.2024E+01
  -1.233  0.1767E+00  0.2025E+01
  -1.223  0.1847E+00  0.2027E+01
  -1.213  0.1928E+00  0.2029E+01
  -1.203  0.2011E+00  0.2031E+01
  -1.193  0.2096E+00  0.2033E+01
  -1.183  0.2183E+00  0.2035E+01
  -1.173  0.2271E+00  0.2037E+01
  -1.163  0.2361E+00  0.2040E+01
  -1.153  0.2452E+00  0.2042E+01
  -1.143  0.2546E+00  0.2045E+01
  -1.133  0.2640E+00  0.2047E+01
  -1.123  0.3328E+00  0.2050E+01
  -1.113  0.3606E+00  0.2054E+01
  -1.103  0.3879E+00  0.2057E+01
  -1.093  0.4148E+00  0.2061E+01
  -1.083  0.4412E+00  0.2066E+01
  -1.073  0.4673E+00  0.2070E+01
  -1.063  0.4929E+00  0.2075E+01
  -1.053  0.5181E+00  0.2080E+01
  -1.043  0.5429E+00  0.2085E+01
  -1.033  0.5672E+00  0.2091E+01
  -1.023  0.5911E+00  0.2097E+01
  -1.013  0.6147E+00  0.2103E+01
  -1.003  0.6377E+00  0.2109E+01
  -0.993  0.6604E+00  0.2115E+01
  -0.983  0.6827E+00  0.2122E+01
  -0.973  0.7045E+00  0.2129E+01
  -0.963  0.7259E+00  0.2136E+01
  -0.953  0.7469E+00  0.2144E+01
  -0.943  0.7674E+00  0.2151E+01
  -0.933  0.7876E+00  0.2159E+01
  -0.923  0.8073E+00  0.2167E+01
  -0.913  0.8266E+00  0.2175E+01
  -0.903  0.8454E+00  0.2183E+01
  -0.893  0.8639E+00  0.2192E+01
  -0.883  0.8819E+00  0.2201E+01
  -0.873  0.8995E+00  0.2210E+01
  -0.863  0.9167E+00  0.2219E+01
  -0.853  0.9334E+00  0.2228E+01
  -0.843  0.9498E+00  0.2237E+01
  -0.833  0.9657E+00  0.2247E+01
  -0.823  0.1017E+01  0.2257E+01
  -0.813  0.1078E+01  0.2267E+01
  -0.803  0.1100E+01  0.2278E+01
  -0.793  0.1082E+01  0.2289E+01
  -0.783  0.1180E+01  0.2303E+01
  -0.773  0.1177E+01  0.2315E+01
  -0.763  0.1175E+01  0.2326E+01
  -0.753  0.1173E+01  0.2338E+01
  -0.743  0.1173E+01  0.2350E+01
  -0.733  0.1174E+01  0.2362E+01
  -0.723  0.1174E+01  0.2373E+01
  -0.713  0.1174E+01  0.2385E+01
  -0.703  0.1175E+01  0.2397E+01
  -0.693  0.1176E+01  0.2409E+01
  -0.683  0.1177E+01  0.2420E+01
  -0.673  0.1179E+01  0.2432E+01
  -0.663  0.1181E+01  0.2444E+01
  -0.653  0.1183E+01  0.2456E+01
  -0.643  0.1186E+01  0.2468E+01
  -0.633  0.1189E+01  0.2479E+01
  -0.623  0.1192E+01  0.2491E+01
  -0.613  0.1196E+01  0.2503E+01
  -0.603  0.1200E+01  0.2515E+01
  -0.593  0.1204E+01  0.2527E+01
  -0.583  0.1209E+01  0.2539E+01
  -0.573  0.1214E+01  0.2551E+01
  -0.563  0.1215E+01  0.2564E+01
  -0.553  0.1214E+01  0.2576E+01
  -0.543  0.1213E+01  0.2588E+01
  -0.533  0.1212E+01  0.2600E+01
  -0.523  0.1209E+01  0.2612E+01
  -0.513  0.1207E+01  0.2624E+01
  -0.503  0.1204E+01  0.2636E+01
  -0.493  0.1201E+01  0.2648E+01
  -0.483  0.1197E+01  0.2660E+01
  -0.473  0.1193E+01  0.2672E+01
  -0.463  0.1188E+01  0.2684E+01
  -0.453  0.1183E+01  0.2696E+01
  -0.443  0.1177E+01  0.2708E+01
  -0.433  0.1172E+01  0.2720E+01
  -0.423  0.1165E+01  0.2731E+01
  -0.413  0.1150E+01  0.2743E+01
  -0.403  0.1135E+01  0.2754E+01
  -0.393  0.1121E+01  0.2766E+01
  -0.383  0.1106E+01  0.2777E+01
  -0.373  0.1092E+01  0.2788E+01
  -0.363  0.1077E+01  0.2798E+01
  -0.353  0.1063E+01  0.2809E+01
  -0.343  0.1049E+01  0.2820E+01
  -0.333  0.1035E+01  0.2830E+01
  -0.323  0.1021E+01  0.2840E+01
  -0.313  0.1007E+01  0.2851E+01
  -0.303  0.9938E+00  0.2861E+01
  -0.293  0.9804E+00  0.2870E+01
  -0.283  0.9670E+00  0.2880E+01
  -0.273  0.9538E+00  0.2890E+01
  -0.263  0.9407E+00  0.2899E+01
  -0.253  0.9277E+00  0.2909E+01
  -0.243  0.9149E+00  0.2918E+01
  -0.233  0.9022E+00  0.2927E+01
  -0.223  0.8896E+00  0.2936E+01
  -0.213  0.8771E+00  0.2945E+01
  -0.203  0.8648E+00  0.2953E+01
  -0.193  0.8526E+00  0.2962E+01
  -0.183  0.8405E+00  0.2970E+01
  -0.173  0.8285E+00  0.2979E+01
  -0.163  0.8166E+00  0.2987E+01
  -0.153  0.8049E+00  0.2995E+01
  -0.143  0.7933E+00  0.3003E+01
  -0.133  0.7818E+00  0.3011E+01
  -0.123  0.7705E+00  0.3019E+01
  -0.113  0.7593E+00  0.3026E+01
  -0.103  0.7482E+00  0.3034E+01
  -0.093  0.7372E+00  0.3041E+01
  -0.083  0.7264E+00  0.3049E+01
  -0.073  0.7157E+00  0.3056E+01
  -0.063  0.7053E+00  0.3063E+01
  -0.053  0.6951E+00  0.3070E+01
  -0.043  0.6851E+00  0.3077E+01
  -0.033  0.6753E+00  0.3084E+01
  -0.023  0.6658E+00  0.3090E+01
  -0.013  0.6565E+00  0.3097E+01
  -0.003  0.6474E+00  0.3104E+01
   0.007  0.6385E+00  0.3110E+01
   0.017  0.6299E+00  0.3116E+01
   0.027  0.6215E+00  0.3123E+01
   0.037  0.6133E+00  0.3129E+01
   0.047  0.6053E+00  0.3135E+01
   0.057  0.5976E+00  0.3141E+01
   0.067  0.5907E+00  0.3147E+01
   0.077  0.5851E+00  0.3153E+01
   0.087  0.5796E+00  0.3159E+01
   0.097  0.5742E+00  0.3164E+01
   0.107  0.5688E+00  0.3170E+01
   0.117  0.5636E+00  0.3176E+01
   0.127  0.5584E+00  0.3181E+01
   0.137  0.5533E+00  0.3187E+01
   0.147  0.5483E+00  0.3192E+01
   0.157  0.5433E+00  0.3198E+01
   0.167  0.5385E+00  0.3203E+01
   0.177  0.5337E+00  0.3209E+01
   0.187  0.5291E+00  0.3214E+01
   0.197  0.5244E+00  0.3219E+01
   0.207  0.5199E+00  0.3224E+01
   0.217  0.5155E+00  0.3230E+01
   0.227  0.5111E+00  0.3235E+01
   0.237  0.5069E+00  0.3240E+01
   0.247  0.5027E+00  0.3245E+01
   0.257  0.4986E+00  0.3250E+01
   0.267  0.4946E+00  0.3255E+01
   0.277  0.4906E+00  0.3260E+01
   0.287  0.4868E+00  0.3265E+01
   0.297  0.4830E+00  0.3269E+01
   0.307  0.4793E+00  0.3274E+01
   0.317  0.4757E+00  0.3279E+01
   0.327  0.4722E+00  0.3284E+01
   0.337  0.4688E+00  0.3288E+01
   0.347  0.4657E+00  0.3293E+01
   0.357  0.4626E+00  0.3298E+01
   0.367  0.4595E+00  0.3302E+01
   0.377  0.4565E+00  0.3307E+01
   0.387  0.4534E+00  0.3312E+01
   0.397  0.4504E+00  0.3316E+01
   0.407  0.4474E+00  0.3321E+01
   0.417  0.4445E+00  0.3325E+01
   0.427  0.4415E+00  0.3329E+01
   0.437  0.4386E+00  0.3334E+01
   0.447  0.4357E+00  0.3338E+01
   0.457  0.4328E+00  0.3343E+01
   0.467  0.4299E+00  0.3347E+01
   0.477  0.4271E+00  0.3351E+01
   0.487  0.4242E+00  0.3355E+01
   0.497  0.4214E+00  0.3360E+01
   0.507  0.4186E+00  0.3364E+01
   0.517  0.4159E+00  0.3368E+01
   0.527  0.4131E+00  0.3372E+01
   0.537  0.4104E+00  0.3376E+01
   0.547  0.4077E+00  0.3380E+01
   0.557  0.4050E+00  0.3384E+01
   0.567  0.4023E+00  0.3388E+01
   0.577  0.3996E+00  0.3392E+01
   0.587  0.3970E+00  0.3396E+01
   0.597  0.3944E+00  0.3400E+01
   0.607  0.3918E+00  0.3404E+01
   0.617  0.3892E+00  0.3408E+01
   0.627  0.3866E+00  0.3412E+01
   0.637  0.3841E+00  0.3416E+01
   0.647  0.3816E+00  0.3420E+01
   0.657  0.3791E+00  0.3424E+01
   0.667  0.3766E+00  0.3427E+01
   0.677  0.3741E+00  0.3431E+01
   0.687  0.3717E+00  0.3435E+01
   0.697  0.3693E+00  0.3439E+01
   0.707  0.3669E+00  0.3442E+01
   0.717  0.3645E+00  0.3446E+01
   0.727  0.3621E+00  0.3450E+01
   0.737  0.3598E+00  0.3453E+01
   0.747  0.3582E+00  0.3457E+01
   0.757  0.3566E+00  0.3460E+01
   0.767  0.3550E+00  0.3464E+01
   0.777  0.3533E+00  0.3467E+01
   0.787  0.3517E+00  0.3471E+01
   0.797  0.3500E+00  0.3474E+01
   0.807  0.3483E+00  0.3478E+01
   0.817  0.3466E+00  0.3481E+01
   0.827  0.3449E+00  0.3485E+01
   0.837  0.3432E+00  0.3488E+01
   0.847  0.3415E+00  0.3492E+01
   0.857  0.3398E+00  0.3495E+01
   0.867  0.3380E+00  0.3499E+01
   0.877  0.3363E+00  0.3502E+01
   0.887  0.3345E+00  0.3505E+01
   0.897  0.3327E+00  0.3509E+01
   0.907  0.3310E+00  0.3512E+01
   0.917  0.3292E+00  0.3515E+01
   0.927  0.3273E+00  0.3518E+01
   0.937  0.3255E+00  0.3522E+01
   0.947  0.3237E+00  0.3525E+01
   0.957  0.3218E+00  0.3528E+01
   0.967  0.3200E+00  0.3531E+01
   0.977  0.3181E+00  0.3535E+01
   0.987  0.3162E+00  0.3538E+01
   0.997  0.3143E+00  0.3541E+01
   1.007  0.3124E+00  0.3544E+01
   1.017  0.3105E+00  0.3547E+01
   1.027  0.3086E+00  0.3550E+01
   1.037  0.3067E+00  0.3553E+01
   1.047  0.3047E+00  0.3556E+01
   1.057  0.3027E+00  0.3559E+01
   1.067  0.3008E+00  0.3562E+01
   1.077  0.2988E+00  0.3565E+01
   1.087  0.2968E+00  0.3568E+01
   1.097  0.2948E+00  0.3571E+01
   1.107  0.2929E+00  0.3574E+01
   1.117  0.2910E+00  0.3577E+01
   1.127  0.2891E+00  0.3580E+01
   1.137  0.2873E+00  0.3583E+01
   1.147  0.2854E+00  0.3586E+01
   1.157  0.2836E+00  0.3589E+01
   1.167  0.2818E+00  0.3592E+01
   1.177  0.2800E+00  0.3594E+01
   1.187  0.2782E+00  0.3597E+01
   1.197  0.2764E+00  0.3600E+01
   1.207  0.2747E+00  0.3603E+01
   1.217  0.2729E+00  0.3605E+01
   1.227  0.2712E+00  0.3608E+01
   1.237  0.2695E+00  0.3611E+01
   1.247  0.2678E+00  0.3614E+01
   1.257  0.2661E+00  0.3616E+01
   1.267  0.2645E+00  0.3619E+01
   1.277  0.2628E+00  0.3622E+01
   1.287  0.2612E+00  0.3624E+01
   1.297  0.2595E+00  0.3627E+01
   1.307  0.2579E+00  0.3629E+01
   1.317  0.2563E+00  0.3632E+01
   1.327  0.2548E+00  0.3634E+01
   1.337  0.2532E+00  0.3637E+01
   1.347  0.2516E+00  0.3640E+01
   1.357  0.2501E+00  0.3642E+01
   1.367  0.2486E+00  0.3645E+01
   1.377  0.2471E+00  0.3647E+01
   1.387  0.2456E+00  0.3649E+01
   1.397  0.2441E+00  0.3652E+01
   1.407  0.2426E+00  0.3654E+01
   1.417  0.2412E+00  0.3657E+01
   1.427  0.2398E+00  0.3659E+01
   1.437  0.2383E+00  0.3662E+01
   1.447  0.2369E+00  0.3664E+01
   1.457  0.2355E+00  0.3666E+01
   1.467  0.2341E+00  0.3669E+01
   1.477  0.2328E+00  0.3671E+01
   1.487  0.2314E+00  0.3673E+01
   1.497  0.2300E+00  0.3676E+01
   1.507  0.2286E+00  0.3678E+01
   1.517  0.2273E+00  0.3680E+01
   1.527  0.2259E+00  0.3682E+01
   1.537  0.2245E+00  0.3685E+01
   1.547  0.2232E+00  0.3687E+01
   1.557  0.2218E+00  0.3689E+01
   1.567  0.2205E+00  0.3691E+01
   1.577  0.2192E+00  0.3694E+01
   1.587  0.2178E+00  0.3696E+01
   1.597  0.2165E+00  0.3698E+01
   1.607  0.2152E+00  0.3700E+01
   1.617  0.2139E+00  0.3702E+01
   1.627  0.2126E+00  0.3704E+01
   1.637  0.2113E+00  0.3707E+01
   1.647  0.2100E+00  0.3709E+01
   1.657  0.2087E+00  0.3711E+01
   1.667  0.2074E+00  0.3713E+01
   1.677  0.2061E+00  0.3715E+01
   1.687  0.2049E+00  0.3717E+01
   1.697  0.2036E+00  0.3719E+01
   1.707  0.2023E+00  0.3721E+01
   1.717  0.2011E+00  0.3723E+01
   1.727  0.1998E+00  0.3725E+01
   1.737  0.1986E+00  0.3727E+01
   1.747  0.1973E+00  0.3729E+01
   1.757  0.1961E+00  0.3731E+01
   1.767  0.3174E+00  0.3734E+01
   1.777  0.3616E+00  0.3737E+01
   1.787  0.4032E+00  0.3741E+01
   1.797  0.4421E+00  0.3745E+01
   1.807  0.4784E+00  0.3750E+01
   1.817  0.5121E+00  0.3755E+01
   1.827  0.5431E+00  0.3760E+01
   1.837  0.5715E+00  0.3765E+01
   1.847  0.5974E+00  0.3771E+01
   1.857  0.6214E+00  0.3777E+01
   1.867  0.6469E+00  0.3784E+01
   1.877  0.6740E+00  0.3790E+01
   1.887  0.7029E+00  0.3797E+01
   1.897  0.7335E+00  0.3804E+01
   1.907  0.7659E+00  0.3812E+01
   1.917  0.7999E+00  0.3820E+01
   1.927  0.8341E+00  0.3828E+01
   1.937  0.8617E+00  0.3836E+01
   1.947  0.8885E+00  0.3845E+01
   1.957  0.9145E+00  0.3854E+01
   1.967  0.9397E+00  0.3863E+01
   1.977  0.9641E+00  0.3873E+01
   1.987  0.9877E+00  0.3883E+01
   1.997  0.1011E+01  0.3893E+01
   2.007  0.1033E+01  0.3903E+01
   2.017  0.1054E+01  0.3913E+01
   2.027  0.1074E+01  0.3924E+01
   2.037  0.1094E+01  0.3935E+01
   2.047  0.1113E+01  0.3946E+01
   2.057  0.1131E+01  0.3957E+01
   2.067  0.1148E+01  0.3968E+01
   2.077  0.1165E+01  0.3980E+01
   2.087  0.1180E+01  0.3992E+01
   2.097  0.1195E+01  0.4004E+01
   2.107  0.1209E+01  0.4016E+01
   2.117  0.1223E+01  0.4028E+01
   2.127  0.1235E+01  0.4040E+01
   2.137  0.1247E+01  0.4053E+01
   2.147  0.1258E+01  0.4065E+01
   2.157  0.1268E+01  0.4078E+01
   2.167  0.1277E+01  0.4090E+01
   2.177  0.1286E+01  0.4103E+01
   2.187  0.1293E+01  0.4116E+01
   2.197  0.1300E+01  0.4129E+01
   2.207  0.1307E+01  0.4142E+01
   2.217  0.1312E+01  0.4155E+01
   2.227  0.1316E+01  0.4168E+01
   2.237  0.1320E+01  0.4182E+01
   2.247  0.1323E+01  0.4195E+01
   2.257  0.1324E+01  0.4208E+01
   2.267  0.1325E+01  0.4221E+01
   2.277  0.1325E+01  0.4234E+01
   2.287  0.1325E+01  0.4248E+01
   2.297  0.1323E+01  0.4261E+01
   2.307  0.1389E+01  0.4274E+01
   2.317  0.1413E+01  0.4288E+01
   2.327  0.1418E+01  0.4302E+01
   2.337  0.1422E+01  0.4317E+01
   2.347  0.1438E+01  0.4331E+01
   2.357  0.1427E+01  0.4345E+01
   2.367  0.1389E+01  0.4359E+01
   2.377  0.1324E+01  0.4373E+01
   2.387  0.1233E+01  0.4386E+01
   2.397  0.1115E+01  0.4398E+01
   2.407  0.1089E+01  0.4408E+01
   2.417  0.1085E+01  0.4419E+01
   2.427  0.1080E+01  0.4430E+01
   2.437  0.1076E+01  0.4441E+01
   2.447  0.1072E+01  0.4452E+01
   2.457  0.1067E+01  0.4462E+01
   2.467  0.1063E+01  0.4473E+01
   2.477  0.1059E+01  0.4484E+01
   2.487  0.1055E+01  0.4494E+01
   2.497  0.1051E+01  0.4505E+01
   2.507  0.1047E+01  0.4515E+01
   2.517  0.1042E+01  0.4526E+01
   2.527  0.1038E+01  0.4536E+01
   2.537  0.1034E+01  0.4546E+01
   2.547  0.1030E+01  0.4557E+01
   2.557  0.1026E+01  0.4567E+01
   2.567  0.1022E+01  0.4577E+01
   2.577  0.1018E+01  0.4587E+01
   2.587  0.1014E+01  0.4598E+01
   2.597  0.1010E+01  0.4608E+01
   2.607  0.1006E+01  0.4618E+01
   2.617  0.1003E+01  0.4628E+01
   2.627  0.9986E+00  0.4638E+01
   2.637  0.9948E+00  0.4648E+01
   2.647  0.9910E+00  0.4658E+01
   2.657  0.9871E+00  0.4668E+01
   2.667  0.9833E+00  0.4678E+01
   2.677  0.9796E+00  0.4687E+01
   2.687  0.9758E+00  0.4697E+01
   2.697  0.9721E+00  0.4707E+01
   2.707  0.9684E+00  0.4717E+01
   2.717  0.9647E+00  0.4726E+01
   2.727  0.9610E+00  0.4736E+01
   2.737  0.9574E+00  0.4745E+01
   2.747  0.9538E+00  0.4755E+01
   2.757  0.9502E+00  0.4765E+01
   2.767  0.9466E+00  0.4774E+01
   2.777  0.9430E+00  0.4783E+01
   2.787  0.9395E+00  0.4793E+01
   2.797  0.9360E+00  0.4802E+01
   2.807  0.9325E+00  0.4812E+01
   2.817  0.9763E+00  0.4821E+01
   2.827  0.1032E+01  0.4831E+01
   2.837  0.1083E+01  0.4842E+01
   2.847  0.1129E+01  0.4853E+01
   2.857  0.1170E+01  0.4864E+01
   2.867  0.1207E+01  0.4876E+01
   2.877  0.1323E+01  0.4892E+01
   2.887  0.1339E+01  0.4906E+01
   2.897  0.1351E+01  0.4919E+01
   2.907  0.1384E+01  0.4933E+01
   2.917  0.1387E+01  0.4947E+01
   2.927  0.1391E+01  0.4961E+01
   2.937  0.1394E+01  0.4975E+01
   2.947  0.1398E+01  0.4988E+01
   2.957  0.1401E+01  0.5002E+01
   2.967  0.1405E+01  0.5017E+01
   2.977  0.1409E+01  0.5031E+01
   2.987  0.1413E+01  0.5045E+01
   2.997  0.1417E+01  0.5059E+01
   3.007  0.1422E+01  0.5073E+01
   3.017  0.1427E+01  0.5087E+01
   3.027  0.1431E+01  0.5102E+01
   3.037  0.1436E+01  0.5116E+01
   3.047  0.1442E+01  0.5130E+01
   3.057  0.1447E+01  0.5145E+01
   3.067  0.1452E+01  0.5159E+01
   3.077  0.1458E+01  0.5174E+01
   3.087  0.1464E+01  0.5188E+01
   3.097  0.1470E+01  0.5203E+01
   3.107  0.1476E+01  0.5218E+01
   3.117  0.1482E+01  0.5233E+01
   3.127  0.1488E+01  0.5247E+01
   3.137  0.1495E+01  0.5262E+01
   3.147  0.1502E+01  0.5277E+01
   3.157  0.1509E+01  0.5292E+01
   3.167  0.1516E+01  0.5308E+01
   3.177  0.1523E+01  0.5323E+01
   3.187  0.1530E+01  0.5338E+01
   3.197  0.1538E+01  0.5353E+01
   3.207  0.1546E+01  0.5369E+01
   3.217  0.1554E+01  0.5384E+01
   3.227  0.1562E+01  0.5400E+01
   3.237  0.1574E+01  0.5415E+01
   3.247  0.1589E+01  0.5431E+01
   3.257  0.1597E+01  0.5447E+01
   3.267  0.1601E+01  0.5463E+01
   3.277  0.1598E+01  0.5479E+01
   3.287  0.1591E+01  0.5495E+01
   3.297  0.1584E+01  0.5511E+01
   3.307  0.1585E+01  0.5527E+01
   3.317  0.1587E+01  0.5543E+01
   3.327  0.2647E+01  0.5563E+01
   3.337  0.1643E+01  0.5581E+01
   3.347  0.1638E+01  0.5597E+01
   3.357  0.1633E+01  0.5614E+01
   3.367  0.1628E+01  0.5630E+01
   3.377  0.1623E+01  0.5646E+01
   3.387  0.1618E+01  0.5662E+01
   3.397  0.1614E+01  0.5679E+01
   3.407  0.1609E+01  0.5695E+01
   3.417  0.1604E+01  0.5711E+01
   3.427  0.1599E+01  0.5727E+01
   3.437  0.1595E+01  0.5743E+01
   3.447  0.1590E+01  0.5759E+01
   3.457  0.1586E+01  0.5775E+01
   3.467  0.1581E+01  0.5790E+01
   3.477  0.1576E+01  0.5806E+01
   3.487  0.1572E+01  0.5822E+01
   3.497  0.1568E+01  0.5838E+01
   3.507  0.1563E+01  0.5853E+01
   3.517  0.1559E+01  0.5869E+01
   3.527  0.1554E+01  0.5884E+01
   3.537  0.1550E+01  0.5900E+01
   3.547  0.1546E+01  0.5915E+01
   3.557  0.1542E+01  0.5931E+01
   3.567  0.1537E+01  0.5946E+01
   3.577  0.1533E+01  0.5962E+01
   3.587  0.1529E+01  0.5977E+01
   3.597  0.1525E+01  0.5992E+01
   3.607  0.1520E+01  0.6007E+01
   3.617  0.1515E+01  0.6023E+01
   3.627  0.1510E+01  0.6038E+01
   3.637  0.1506E+01  0.6053E+01
   3.647  0.1502E+01  0.6068E+01
   3.657  0.1499E+01  0.6083E+01
   3.667  0.1665E+01  0.6098E+01
   3.677  0.1648E+01  0.6115E+01
   3.687  0.1632E+01  0.6131E+01
   3.697  0.1617E+01  0.6147E+01
   3.707  0.1603E+01  0.6163E+01
   3.717  0.1591E+01  0.6179E+01
   3.727  0.1580E+01  0.6195E+01
   3.737  0.1570E+01  0.6211E+01
   3.747  0.1562E+01  0.6226E+01
   3.757  0.1556E+01  0.6242E+01
   3.767  0.1550E+01  0.6258E+01
   3.777  0.1547E+01  0.6273E+01
   3.787  0.1543E+01  0.6289E+01
   3.797  0.1540E+01  0.6304E+01
   3.807  0.1537E+01  0.6319E+01
   3.817  0.1534E+01  0.6335E+01
   3.827  0.1531E+01  0.6350E+01
   3.837  0.1527E+01  0.6365E+01
   3.847  0.1524E+01  0.6381E+01
   3.857  0.1521E+01  0.6396E+01
   3.867  0.1517E+01  0.6411E+01
   3.877  0.1514E+01  0.6426E+01
   3.887  0.1510E+01  0.6441E+01
   3.897  0.1507E+01  0.6456E+01
   3.907  0.1504E+01  0.6471E+01
   3.917  0.1500E+01  0.6486E+01
   3.927  0.1497E+01  0.6501E+01
   3.937  0.1493E+01  0.6516E+01
   3.947  0.1490E+01  0.6531E+01
   3.957  0.1486E+01  0.6546E+01
   3.967  0.1482E+01  0.6561E+01
   3.977  0.1479E+01  0.6576E+01
   3.987  0.1475E+01  0.6591E+01
   3.997  0.1472E+01  0.6605E+01
   4.007  0.1468E+01  0.6620E+01
   4.017  0.1464E+01  0.6635E+01
   4.027  0.1463E+01  0.6649E+01
   4.037  0.1462E+01  0.6664E+01
   4.047  0.1465E+01  0.6679E+01
   4.057  0.1468E+01  0.6693E+01
   4.067  0.1470E+01  0.6708E+01
   4.077  0.1472E+01  0.6723E+01
   4.087  0.1473E+01  0.6737E+01
   4.097  0.1474E+01  0.6752E+01
   4.107  0.1474E+01  0.6767E+01
   4.117  0.1473E+01  0.6782E+01
   4.127  0.1472E+01  0.6796E+01
   4.137  0.1470E+01  0.6811E+01
   4.147  0.1468E+01  0.6826E+01
   4.157  0.1465E+01  0.6840E+01
   4.167  0.1461E+01  0.6855E+01
   4.177  0.1457E+01  0.6870E+01
   4.187  0.1452E+01  0.6884E+01
   4.197  0.1447E+01  0.6899E+01
   4.207  0.1442E+01  0.6913E+01
   4.217  0.1437E+01  0.6927E+01
   4.227  0.1431E+01  0.6942E+01
   4.237  0.1424E+01  0.6956E+01
   4.247  0.1417E+01  0.6970E+01
   4.257  0.1408E+01  0.6984E+01
   4.267  0.1399E+01  0.6998E+01
   4.277  0.1390E+01  0.7012E+01
   4.287  0.1379E+01  0.7026E+01
   4.297  0.1374E+01  0.7040E+01
   4.307  0.1371E+01  0.7054E+01
   4.317  0.1366E+01  0.7067E+01
   4.327  0.1360E+01  0.7081E+01
   4.337  0.1360E+01  0.7095E+01
   4.347  0.1360E+01  0.7108E+01
   4.357  0.1359E+01  0.7122E+01
   4.367  0.1358E+01  0.7135E+01
   4.377  0.1356E+01  0.7149E+01
   4.387  0.1355E+01  0.7163E+01
   4.397  0.1352E+01  0.7176E+01
   4.407  0.1350E+01  0.7190E+01
   4.417  0.1347E+01  0.7203E+01
   4.427  0.1345E+01  0.7217E+01
   4.437  0.1346E+01  0.7230E+01
   4.447  0.1347E+01  0.7243E+01
   4.457  0.1348E+01  0.7257E+01
   4.467  0.1349E+01  0.7270E+01
   4.477  0.1349E+01  0.7284E+01
   4.487  0.1330E+01  0.7299E+01
   4.497  0.1315E+01  0.7313E+01
   4.507  0.1300E+01  0.7326E+01
   4.517  0.1284E+01  0.7339E+01
   4.527  0.1269E+01  0.7351E+01
   4.537  0.1253E+01  0.7364E+01
   4.547  0.1238E+01  0.7376E+01
   4.557  0.1222E+01  0.7389E+01
   4.567  0.1207E+01  0.7401E+01
   4.577  0.1191E+01  0.7413E+01
   4.587  0.1176E+01  0.7425E+01
   4.597  0.1160E+01  0.7436E+01
   4.607  0.1145E+01  0.7448E+01
   4.617  0.1129E+01  0.7459E+01
   4.627  0.1113E+01  0.7470E+01
   4.637  0.1098E+01  0.7481E+01
   4.647  0.1082E+01  0.7492E+01
   4.657  0.1066E+01  0.7503E+01
   4.667  0.1050E+01  0.7514E+01
   4.677  0.1035E+01  0.7524E+01
   4.687  0.1019E+01  0.7534E+01
   4.697  0.1003E+01  0.7545E+01
   4.707  0.9871E+00  0.7554E+01
   4.717  0.9711E+00  0.7564E+01
   4.727  0.9552E+00  0.7574E+01
   4.737  0.9392E+00  0.7583E+01
   4.747  0.9233E+00  0.7593E+01
   4.757  0.9072E+00  0.7602E+01
   4.767  0.8912E+00  0.7611E+01
   4.777  0.8751E+00  0.7620E+01
   4.787  0.8590E+00  0.7628E+01
   4.797  0.8429E+00  0.7637E+01
   4.807  0.8267E+00  0.7645E+01
   4.817  0.8105E+00  0.7653E+01
   4.827  0.7943E+00  0.7661E+01
   4.837  0.7787E+00  0.7669E+01
   4.847  0.7635E+00  0.7677E+01
   4.857  0.7486E+00  0.7685E+01
   4.867  0.7341E+00  0.7692E+01
   4.877  0.7199E+00  0.7699E+01
   4.887  0.7061E+00  0.7706E+01
   4.897  0.6926E+00  0.7713E+01
   4.907  0.6795E+00  0.7720E+01
   4.917  0.6666E+00  0.7727E+01
   4.927  0.6541E+00  0.7734E+01
   4.937  0.6420E+00  0.7740E+01
   4.947  0.6302E+00  0.7746E+01
   4.957  0.6187E+00  0.7753E+01
   4.967  0.6076E+00  0.7759E+01
   4.977  0.5968E+00  0.7765E+01
   4.987  0.5864E+00  0.7771E+01
   4.997  0.5763E+00  0.7776E+01
   5.007  0.5606E+00  0.7782E+01
   5.017  0.5454E+00  0.7788E+01
   5.027  0.5312E+00  0.7793E+01
   5.037  0.5178E+00  0.7798E+01
   5.047  0.5054E+00  0.7803E+01
   5.057  0.4938E+00  0.7808E+01
   5.067  0.4832E+00  0.7813E+01
   5.077  0.4735E+00  0.7818E+01
   5.087  0.4647E+00  0.7823E+01
   5.097  0.4568E+00  0.7827E+01
   5.107  0.4498E+00  0.7832E+01
   5.117  0.4437E+00  0.7836E+01
   5.127  0.4378E+00  0.7841E+01
   5.137  0.4320E+00  0.7845E+01
   5.147  0.4261E+00  0.7849E+01
   5.157  0.4202E+00  0.7854E+01
   5.167  0.4142E+00  0.7858E+01
   5.177  0.4083E+00  0.7862E+01
   5.187  0.4023E+00  0.7866E+01
   5.197  0.3963E+00  0.7870E+01
   5.207  0.3903E+00  0.7874E+01
   5.217  0.3843E+00  0.7878E+01
   5.227  0.3783E+00  0.7882E+01
   5.237  0.3723E+00  0.7885E+01
   5.247  0.3662E+00  0.7889E+01
   5.257  0.3601E+00  0.7893E+01
   5.267  0.3540E+00  0.7896E+01
   5.277  0.3479E+00  0.7900E+01
   5.287  0.3418E+00  0.7903E+01
   5.297  0.3356E+00  0.7907E+01
   5.307  0.3295E+00  0.7910E+01
   5.317  0.3233E+00  0.7913E+01
   5.327  0.3171E+00  0.7916E+01
   5.337  0.3109E+00  0.7920E+01
   5.347  0.3047E+00  0.7923E+01
   5.357  0.2984E+00  0.7926E+01
   5.367  0.2922E+00  0.7929E+01
   5.377  0.2859E+00  0.7931E+01
   5.387  0.2796E+00  0.7934E+01
   5.397  0.2733E+00  0.7937E+01
   5.407  0.2669E+00  0.7940E+01
   5.417  0.2606E+00  0.7942E+01
   5.427  0.2542E+00  0.7945E+01
   5.437  0.2479E+00  0.7948E+01
   5.447  0.2415E+00  0.7950E+01
   5.457  0.2350E+00  0.7952E+01
   5.467  0.2286E+00  0.7955E+01
   5.477  0.2222E+00  0.7957E+01
   5.487  0.2157E+00  0.7959E+01
   5.497  0.2092E+00  0.7961E+01
   5.507  0.2027E+00  0.7963E+01
   5.517  0.1962E+00  0.7965E+01
   5.527  0.1897E+00  0.7967E+01
   5.537  0.1831E+00  0.7969E+01
   5.547  0.1766E+00  0.7971E+01
   5.557  0.1700E+00  0.7973E+01
   5.567  0.1634E+00  0.7974E+01
   5.577  0.1568E+00  0.7976E+01
   5.587  0.1501E+00  0.7977E+01
   5.597  0.2340E+00  0.7979E+01
   5.607  0.2617E+00  0.7982E+01
   5.617  0.2206E+00  0.7984E+01
   5.627  0.1176E+00  0.7986E+01
   5.637  0.1111E+00  0.7987E+01
   5.647  0.1048E+00  0.7988E+01
   5.657  0.9863E-01  0.7989E+01
   5.667  0.9268E-01  0.7990E+01
   5.677  0.8690E-01  0.7991E+01
   5.687  0.8132E-01  0.7992E+01
   5.697  0.7592E-01  0.7993E+01
   5.707  0.7070E-01  0.7993E+01
   5.717  0.6567E-01  0.7994E+01
   5.727  0.6083E-01  0.7995E+01
   5.737  0.5617E-01  0.7995E+01
   5.747  0.5169E-01  0.7996E+01
   5.757  0.4741E-01  0.7996E+01
   5.767  0.4331E-01  0.7997E+01
   5.777  0.3939E-01  0.7997E+01
   5.787  0.3566E-01  0.7998E+01
   5.797  0.3211E-01  0.7998E+01
   5.807  0.2875E-01  0.7998E+01
   5.817  0.2558E-01  0.7999E+01
   5.827  0.2259E-01  0.7999E+01
   5.837  0.1979E-01  0.7999E+01
   5.847  0.1717E-01  0.7999E+01
   5.857  0.1474E-01  0.7999E+01
   5.867  0.1249E-01  0.8000E+01
   5.877  0.1043E-01  0.8000E+01
   5.887  0.8557E-02  0.8000E+01
   5.897  0.6868E-02  0.8000E+01
   5.907  0.5364E-02  0.8000E+01
   5.917  0.4046E-02  0.8000E+01
   5.927  0.2913E-02  0.8000E+01
   5.937  0.1966E-02  0.8000E+01
   5.947  0.1205E-02  0.8000E+01
   5.957  0.6288E-03  0.8000E+01
   5.967  0.2385E-03  0.8000E+01
   5.977  0.3377E-04  0.8000E+01
   5.987  0.0000E+00  0.8000E+01
   5.997  0.0000E+00  0.8000E+01
   6.007  0.0000E+00  0.8000E+01
   6.017  0.0000E+00  0.8000E+01
   6.027  0.0000E+00  0.8000E+01
   6.037  0.0000E+00  0.8000E+01
   6.047  0.0000E+00  0.8000E+01
   6.057  0.0000E+00  0.8000E+01
   6.067  0.0000E+00  0.8000E+01
   6.077  0.0000E+00  0.8000E+01
   6.087  0.0000E+00  0.8000E+01
   6.097  0.0000E+00  0.8000E+01
   6.107  0.0000E+00  0.8000E+01
   6.117  0.0000E+00  0.8000E+01
   6.127  0.0000E+00  0.8000E+01
   6.137  0.0000E+00  0.8000E+01
   6.147  0.0000E+00  0.8000E+01
   6.157  0.0000E+00  0.8000E+01
   6.167  0.0000E+00  0.8000E+01
   6.177  0.0000E+00  0.8000E+01
   6.187  0.0000E+00  0.8000E+01
   6.197  0.0000E+00  0.8000E+01
   6.207  0.0000E+00  0.8000E+01
   6.217  0.0000E+00  0.8000E+01
   6.227  0.0000E+00  0.8000E+01
   6.237  0.0000E+00  0.8000E+01
   6.247  0.0000E+00  0.8000E+01
   6.257  0.0000E+00  0.8000E+01
   6.267  0.0000E+00  0.8000E+01
   6.277  0.0000E+00  0.8000E+01
   6.287  0.0000E+00  0.8000E+01
   6.297  0.0000E+00  0.8000E+01
   6.307  0.0000E+00  0.8000E+01
   6.317  0.0000E+00  0.8000E+01
   6.327  0.0000E+00  0.8000E+01
   6.337  0.0000E+00  0.8000E+01
   6.347  0.0000E+00  0.8000E+01
   6.357  0.0000E+00  0.8000E+01
   6.367  0.0000E+00  0.8000E+01
   6.377  0.0000E+00  0.8000E+01
   6.387  0.0000E+00  0.8000E+01
   6.397  0.0000E+00  0.8000E+01
   6.407  0.0000E+00  0.8000E+01
   6.417  0.0000E+00  0.8000E+01
   6.427  0.0000E+00  0.8000E+01
   6.437  0.0000E+00  0.8000E+01
   6.447  0.0000E+00  0.8000E+01
   6.457  0.0000E+00  0.8000E+01
   6.467  0.6731E-03  0.8000E+01
   6.477  0.2087E-02  0.8000E+01
   6.487  0.3685E-02  0.8000E+01
   6.497  0.5469E-02  0.8000E+01
   6.507  0.7438E-02  0.8000E+01
   6.517  0.9593E-02  0.8000E+01
   6.527  0.1193E-01  0.8000E+01
   6.537  0.1446E-01  0.8000E+01
   6.547  0.1717E-01  0.8001E+01
   6.557  0.2006E-01  0.8001E+01
   6.567  0.2314E-01  0.8001E+01
   6.577  0.2641E-01  0.8001E+01
   6.587  0.2986E-01  0.8002E+01
   6.597  0.3350E-01  0.8002E+01
   6.607  0.3732E-01  0.8002E+01
   6.617  0.4132E-01  0.8003E+01
   6.627  0.4552E-01  0.8003E+01
   6.637  0.4989E-01  0.8004E+01
   6.647  0.5445E-01  0.8004E+01
   6.657  0.5920E-01  0.8005E+01
   6.667  0.6413E-01  0.8005E+01
   6.677  0.6925E-01  0.8006E+01
   6.687  0.7456E-01  0.8007E+01
   6.697  0.8004E-01  0.8007E+01
   6.707  0.8572E-01  0.8008E+01
   6.717  0.9158E-01  0.8009E+01
   6.727  0.9762E-01  0.8010E+01
   6.737  0.1038E+00  0.8011E+01
   6.747  0.1103E+00  0.8012E+01
   6.757  0.1169E+00  0.8013E+01
   6.767  0.1217E+00  0.8014E+01
   6.777  0.1256E+00  0.8016E+01
   6.787  0.1293E+00  0.8017E+01
   6.797  0.1328E+00  0.8018E+01
   6.807  0.1362E+00  0.8020E+01
   6.817  0.1395E+00  0.8021E+01
   6.827  0.1426E+00  0.8022E+01
   6.837  0.1458E+00  0.8024E+01
   6.847  0.1492E+00  0.8025E+01
   6.857  0.1528E+00  0.8027E+01
   6.867  0.1565E+00  0.8028E+01
   6.877  0.1604E+00  0.8030E+01
   6.887  0.1644E+00  0.8032E+01
   6.897  0.1685E+00  0.8033E+01
   6.907  0.1728E+00  0.8035E+01
   6.917  0.1773E+00  0.8037E+01
   6.927  0.1819E+00  0.8039E+01
   6.937  0.1867E+00  0.8040E+01
   6.947  0.1916E+00  0.8042E+01
   6.957  0.1967E+00  0.8044E+01
   6.967  0.2019E+00  0.8046E+01
   6.977  0.2073E+00  0.8048E+01
   6.987  0.2130E+00  0.8050E+01
   6.997  0.2189E+00  0.8053E+01
   7.007  0.2249E+00  0.8055E+01
   7.017  0.2311E+00  0.8057E+01
   7.027  0.2374E+00  0.8059E+01
   7.037  0.2439E+00  0.8062E+01
   7.047  0.2506E+00  0.8064E+01
   7.057  0.2575E+00  0.8067E+01
   7.067  0.2645E+00  0.8069E+01
   7.077  0.2717E+00  0.8072E+01
   7.087  0.2791E+00  0.8075E+01
   7.097  0.2866E+00  0.8078E+01
   7.107  0.2917E+00  0.8081E+01
   7.117  0.2953E+00  0.8083E+01
   7.127  0.2990E+00  0.8086E+01
   7.137  0.3030E+00  0.8089E+01
   7.147  0.3070E+00  0.8093E+01
   7.157  0.3113E+00  0.8096E+01
   7.167  0.3157E+00  0.8099E+01
   7.177  0.3203E+00  0.8102E+01
   7.187  0.3251E+00  0.8105E+01
   7.197  0.3300E+00  0.8108E+01
   7.207  0.3351E+00  0.8112E+01
   7.217  0.3404E+00  0.8115E+01
   7.227  0.3458E+00  0.8119E+01
   7.237  0.3515E+00  0.8122E+01
   7.247  0.3573E+00  0.8126E+01
   7.257  0.3632E+00  0.8129E+01
   7.267  0.3694E+00  0.8133E+01
   7.277  0.3757E+00  0.8137E+01
   7.287  0.3822E+00  0.8140E+01
   7.297  0.3888E+00  0.8144E+01
   7.307  0.3956E+00  0.8148E+01
   7.317  0.4026E+00  0.8152E+01
   7.327  0.4098E+00  0.8156E+01
   7.337  0.4172E+00  0.8160E+01
   7.347  0.4247E+00  0.8165E+01
   7.357  0.4324E+00  0.8169E+01
   7.367  0.4404E+00  0.8173E+01
   7.377  0.4485E+00  0.8178E+01
   7.387  0.4569E+00  0.8182E+01
   7.397  0.4654E+00  0.8187E+01
   7.407  0.4742E+00  0.8191E+01
   7.417  0.4849E+00  0.8196E+01
   7.427  0.4958E+00  0.8201E+01
   7.437  0.5069E+00  0.8206E+01
   7.447  0.5183E+00  0.8211E+01
   7.457  0.5300E+00  0.8217E+01
   7.467  0.5419E+00  0.8222E+01
   7.477  0.5541E+00  0.8227E+01
   7.487  0.5665E+00  0.8233E+01
   7.497  0.5792E+00  0.8239E+01
   7.507  0.5922E+00  0.8245E+01
   7.517  0.6054E+00  0.8251E+01
   7.527  0.6189E+00  0.8257E+01
   7.537  0.6326E+00  0.8263E+01
   7.547  0.6466E+00  0.8269E+01
   7.557  0.6608E+00  0.8276E+01
   7.567  0.6753E+00  0.8283E+01
   7.577  0.6900E+00  0.8289E+01
   7.587  0.7050E+00  0.8296E+01
   7.597  0.7203E+00  0.8303E+01
   7.607  0.7358E+00  0.8311E+01
   7.617  0.7516E+00  0.8318E+01
   7.627  0.7677E+00  0.8326E+01
   7.637  0.7840E+00  0.8334E+01
   7.647  0.8005E+00  0.8341E+01
   7.657  0.8173E+00  0.8350E+01
   7.667  0.8344E+00  0.8358E+01
   7.677  0.8517E+00  0.8366E+01
   7.687  0.8693E+00  0.8375E+01
   7.697  0.8871E+00  0.8384E+01
   7.707  0.9052E+00  0.8393E+01
   7.717  0.9236E+00  0.8402E+01
   7.727  0.9422E+00  0.8411E+01
   7.737  0.9612E+00  0.8421E+01
   7.747  0.9834E+00  0.8430E+01
   7.757  0.1010E+01  0.8440E+01
   7.767  0.1041E+01  0.8451E+01
   7.777  0.1075E+01  0.8461E+01
   7.787  0.1118E+01  0.8472E+01
   7.797  0.1161E+01  0.8483E+01
   7.807  0.1203E+01  0.8495E+01
   7.817  0.1244E+01  0.8508E+01
   7.827  0.1285E+01  0.8520E+01
   7.837  0.1324E+01  0.8533E+01
   7.847  0.1362E+01  0.8547E+01
   7.857  0.1399E+01  0.8560E+01
   7.867  0.1435E+01  0.8575E+01
   7.877  0.1470E+01  0.8589E+01
   7.887  0.1504E+01  0.8604E+01
   7.897  0.1536E+01  0.8619E+01
   7.907  0.1568E+01  0.8635E+01
   7.917  0.1599E+01  0.8651E+01
   7.927  0.1629E+01  0.8667E+01
   7.937  0.1658E+01  0.8683E+01
   7.947  0.1688E+01  0.8700E+01
   7.957  0.1720E+01  0.8717E+01
   7.967  0.1756E+01  0.8734E+01
   7.977  0.1778E+01  0.8752E+01
   7.987  0.1802E+01  0.8770E+01
   7.997  0.1826E+01  0.8788E+01
   8.007  0.1851E+01  0.8806E+01
   8.017  0.1877E+01  0.8825E+01
   8.027  0.1903E+01  0.8844E+01
   8.037  0.1930E+01  0.8863E+01
   8.047  0.1959E+01  0.8883E+01
   8.057  0.1989E+01  0.8902E+01
   8.067  0.2020E+01  0.8922E+01
   8.077  0.2053E+01  0.8943E+01
   8.087  0.2088E+01  0.8963E+01
   8.097  0.2124E+01  0.8984E+01
   8.107  0.2163E+01  0.9006E+01
   8.117  0.2072E+01  0.9029E+01
   8.127  0.2075E+01  0.9049E+01
   8.137  0.2078E+01  0.9070E+01
   8.147  0.2080E+01  0.9091E+01
   8.157  0.2082E+01  0.9112E+01
   8.167  0.2083E+01  0.9133E+01
   8.177  0.2083E+01  0.9153E+01
   8.187  0.2082E+01  0.9174E+01
   8.197  0.2081E+01  0.9195E+01
   8.207  0.2079E+01  0.9216E+01
   8.217  0.2076E+01  0.9237E+01
   8.227  0.2072E+01  0.9257E+01
   8.237  0.2068E+01  0.9278E+01
   8.247  0.2063E+01  0.9299E+01
   8.257  0.2057E+01  0.9319E+01
   8.267  0.2051E+01  0.9340E+01
   8.277  0.2044E+01  0.9360E+01
   8.287  0.2036E+01  0.9381E+01
   8.297  0.2031E+01  0.9401E+01
   8.307  0.2026E+01  0.9421E+01
   8.317  0.2020E+01  0.9442E+01
   8.327  0.2013E+01  0.9462E+01
   8.337  0.2005E+01  0.9482E+01
   8.347  0.1997E+01  0.9502E+01
   8.357  0.1988E+01  0.9522E+01
   8.367  0.1978E+01  0.9542E+01
   8.377  0.1968E+01  0.9561E+01
   8.387  0.1956E+01  0.9581E+01
   8.397  0.1944E+01  0.9600E+01
   8.407  0.1931E+01  0.9620E+01
   8.417  0.1918E+01  0.9639E+01
   8.427  0.1904E+01  0.9658E+01
   8.437  0.1888E+01  0.9677E+01
   8.447  0.1873E+01  0.9696E+01
   8.457  0.1856E+01  0.9715E+01
   8.467  0.1851E+01  0.9733E+01
   8.477  0.1848E+01  0.9752E+01
   8.487  0.1835E+01  0.9770E+01
   8.497  0.1805E+01  0.9788E+01
   8.507  0.1764E+01  0.9806E+01
   8.517  0.1755E+01  0.9824E+01
   8.527  0.1736E+01  0.9841E+01
   8.537  0.1707E+01  0.9858E+01
   8.547  0.1669E+01  0.9875E+01
   8.557  0.1621E+01  0.9892E+01
   8.567  0.1564E+01  0.9908E+01
   8.577  0.1499E+01  0.9923E+01
   8.587  0.1480E+01  0.9938E+01
   8.597  0.1460E+01  0.9953E+01
   8.607  0.1440E+01  0.9967E+01
   8.617  0.1420E+01  0.9981E+01
   8.627  0.1412E+01  0.9996E+01
   8.637  0.1377E+01  0.1001E+02
   8.647  0.1343E+01  0.1002E+02
   8.657  0.1309E+01  0.1004E+02
   8.667  0.1277E+01  0.1005E+02
   8.677  0.1244E+01  0.1006E+02
   8.687  0.1212E+01  0.1007E+02
   8.697  0.1181E+01  0.1009E+02
   8.707  0.1150E+01  0.1010E+02
   8.717  0.1120E+01  0.1011E+02
   8.727  0.1090E+01  0.1012E+02
   8.737  0.1061E+01  0.1013E+02
   8.747  0.1033E+01  0.1014E+02
   8.757  0.1005E+01  0.1015E+02
   8.767  0.9774E+00  0.1016E+02
   8.777  0.9505E+00  0.1017E+02
   8.787  0.9243E+00  0.1018E+02
   8.797  0.8985E+00  0.1019E+02
   8.807  0.8734E+00  0.1020E+02
   8.817  0.8487E+00  0.1021E+02
   8.827  0.8247E+00  0.1022E+02
   8.837  0.8012E+00  0.1022E+02
   8.847  0.7782E+00  0.1023E+02
   8.857  0.7558E+00  0.1024E+02
   8.867  0.7340E+00  0.1025E+02
   8.877  0.7128E+00  0.1025E+02
   8.887  0.6920E+00  0.1026E+02
   8.897  0.6719E+00  0.1027E+02
   8.907  0.6523E+00  0.1027E+02
   8.917  0.6357E+00  0.1028E+02
   8.927  0.6220E+00  0.1029E+02
   8.937  0.6099E+00  0.1029E+02
   8.947  0.5293E+00  0.1030E+02
   8.957  0.5384E+00  0.1030E+02
   8.967  0.5476E+00  0.1031E+02
   8.977  0.5568E+00  0.1032E+02
   8.987  0.5662E+00  0.1032E+02
   8.997  0.5770E+00  0.1033E+02
   9.007  0.5902E+00  0.1033E+02
   9.017  0.6035E+00  0.1034E+02
   9.027  0.6169E+00  0.1034E+02
   9.037  0.6304E+00  0.1035E+02
   9.047  0.6440E+00  0.1036E+02
   9.057  0.6577E+00  0.1036E+02
   9.067  0.6716E+00  0.1037E+02
   9.077  0.6855E+00  0.1038E+02
   9.087  0.6995E+00  0.1038E+02
   9.097  0.7136E+00  0.1039E+02
   9.107  0.7278E+00  0.1040E+02
   9.117  0.7422E+00  0.1041E+02
   9.127  0.7566E+00  0.1041E+02
   9.137  0.7711E+00  0.1042E+02
   9.147  0.7857E+00  0.1043E+02
   9.157  0.8005E+00  0.1044E+02
   9.167  0.8153E+00  0.1044E+02
   9.177  0.8303E+00  0.1045E+02
   9.187  0.8453E+00  0.1046E+02
   9.197  0.8604E+00  0.1047E+02
   9.207  0.8757E+00  0.1048E+02
   9.217  0.8915E+00  0.1049E+02
   9.227  0.9080E+00  0.1050E+02
   9.237  0.9252E+00  0.1051E+02
   9.247  0.9430E+00  0.1052E+02
   9.257  0.9614E+00  0.1052E+02
   9.267  0.9806E+00  0.1053E+02
   9.277  0.1000E+01  0.1054E+02
   9.287  0.1021E+01  0.1055E+02
   9.297  0.1061E+01  0.1056E+02
   9.307  0.1112E+01  0.1058E+02
   9.317  0.1168E+01  0.1059E+02
   9.327  0.1228E+01  0.1060E+02
   9.337  0.1292E+01  0.1061E+02
   9.347  0.1361E+01  0.1062E+02
   9.357  0.1434E+01  0.1064E+02
   9.367  0.1591E+01  0.1065E+02
   9.377  0.1657E+01  0.1067E+02
   9.387  0.1722E+01  0.1069E+02
   9.397  0.1787E+01  0.1070E+02
   9.407  0.1850E+01  0.1072E+02
   9.417  0.1913E+01  0.1074E+02
   9.427  0.1976E+01  0.1076E+02
   9.437  0.2037E+01  0.1078E+02
   9.447  0.2096E+01  0.1080E+02
   9.457  0.2154E+01  0.1082E+02
   9.467  0.2211E+01  0.1085E+02
   9.477  0.2267E+01  0.1087E+02
   9.487  0.2321E+01  0.1089E+02
   9.497  0.2375E+01  0.1091E+02
   9.507  0.2427E+01  0.1094E+02
   9.517  0.2478E+01  0.1096E+02
   9.527  0.2527E+01  0.1099E+02
   9.537  0.2576E+01  0.1101E+02
   9.547  0.2623E+01  0.1104E+02
   9.557  0.2669E+01  0.1107E+02
   9.567  0.2714E+01  0.1109E+02
   9.577  0.2758E+01  0.1112E+02
   9.587  0.2801E+01  0.1115E+02
   9.597  0.2842E+01  0.1118E+02
   9.607  0.2967E+01  0.1121E+02
   9.617  0.2970E+01  0.1124E+02
   9.627  0.2970E+01  0.1127E+02
   9.637  0.2968E+01  0.1130E+02
   9.647  0.2962E+01  0.1133E+02
   9.657  0.2954E+01  0.1136E+02
   9.667  0.2944E+01  0.1138E+02
   9.677  0.2930E+01  0.1141E+02
   9.687  0.2914E+01  0.1144E+02
   9.697  0.3003E+01  0.1147E+02
   9.707  0.3106E+01  0.1150E+02
   9.717  0.3120E+01  0.1153E+02
   9.727  0.3045E+01  0.1157E+02
   9.737  0.2883E+01  0.1160E+02
   9.747  0.2632E+01  0.1162E+02
   9.757  0.2359E+01  0.1165E+02
   9.767  0.2122E+01  0.1167E+02
   9.777  0.1911E+01  0.1169E+02
   9.787  0.1727E+01  0.1171E+02
   9.797  0.1568E+01  0.1172E+02
   9.807  0.1511E+01  0.1174E+02
   9.817  0.1468E+01  0.1176E+02
   9.827  0.1433E+01  0.1177E+02
   9.837  0.1406E+01  0.1178E+02
   9.847  0.1388E+01  0.1180E+02
   9.857  0.1378E+01  0.1181E+02
   9.867  0.1375E+01  0.1183E+02
   9.877  0.1383E+01  0.1184E+02
   9.887  0.1393E+01  0.1185E+02
   9.897  0.1404E+01  0.1187E+02
   9.907  0.1415E+01  0.1188E+02
   9.917  0.1426E+01  0.1190E+02
   9.927  0.1438E+01  0.1191E+02
   9.937  0.1449E+01  0.1192E+02
   9.947  0.1461E+01  0.1194E+02
   9.957  0.1473E+01  0.1195E+02
   9.967  0.1485E+01  0.1197E+02
   9.977  0.1497E+01  0.1198E+02
   9.987  0.1509E+01  0.1200E+02
   9.997  0.1522E+01  0.1201E+02
  10.007  0.1535E+01  0.1203E+02
  10.017  0.1543E+01  0.1204E+02
  10.027  0.1530E+01  0.1206E+02
  10.037  0.1475E+01  0.1208E+02
  10.047  0.1465E+01  0.1209E+02
  10.057  0.1455E+01  0.1211E+02
  10.067  0.1444E+01  0.1212E+02
  10.077  0.1434E+01  0.1213E+02
  10.087  0.1423E+01  0.1215E+02
  10.097  0.1413E+01  0.1216E+02
  10.107  0.1402E+01  0.1218E+02
  10.117  0.1391E+01  0.1219E+02
  10.127  0.1380E+01  0.1220E+02
  10.137  0.1369E+01  0.1222E+02
  10.147  0.1358E+01  0.1223E+02
  10.157  0.1346E+01  0.1225E+02
  10.167  0.1335E+01  0.1226E+02
  10.177  0.1324E+01  0.1227E+02
  10.187  0.1312E+01  0.1229E+02
  10.197  0.1300E+01  0.1230E+02
  10.207  0.1290E+01  0.1231E+02
  10.217  0.1282E+01  0.1232E+02
  10.227  0.1273E+01  0.1234E+02
  10.237  0.1264E+01  0.1235E+02
  10.247  0.1255E+01  0.1236E+02
  10.257  0.1246E+01  0.1238E+02
  10.267  0.1237E+01  0.1239E+02
  10.277  0.1227E+01  0.1240E+02
  10.287  0.1218E+01  0.1241E+02
  10.297  0.1208E+01  0.1242E+02
  10.307  0.1198E+01  0.1244E+02
  10.317  0.1188E+01  0.1245E+02
  10.327  0.1178E+01  0.1246E+02
  10.337  0.1168E+01  0.1247E+02
  10.347  0.1158E+01  0.1248E+02
  10.357  0.1147E+01  0.1249E+02
  10.367  0.1137E+01  0.1251E+02
  10.377  0.1126E+01  0.1252E+02
  10.387  0.1115E+01  0.1253E+02
  10.397  0.1104E+01  0.1254E+02
  10.407  0.1093E+01  0.1255E+02
  10.417  0.1082E+01  0.1256E+02
  10.427  0.1070E+01  0.1257E+02
  10.437  0.1017E+01  0.1258E+02
  10.447  0.9994E+00  0.1259E+02
  10.457  0.9974E+00  0.1260E+02
  10.467  0.9953E+00  0.1261E+02
  10.477  0.9932E+00  0.1262E+02
  10.487  0.9911E+00  0.1263E+02
  10.497  0.9890E+00  0.1264E+02
  10.507  0.9868E+00  0.1265E+02
  10.517  0.9846E+00  0.1266E+02
  10.527  0.9823E+00  0.1267E+02
  10.537  0.9800E+00  0.1268E+02
  10.547  0.9777E+00  0.1269E+02
  10.557  0.9753E+00  0.1270E+02
  10.567  0.9729E+00  0.1271E+02
  10.577  0.9704E+00  0.1272E+02
  10.587  0.9679E+00  0.1273E+02
  10.597  0.9654E+00  0.1274E+02
  10.607  0.9629E+00  0.1275E+02
  10.617  0.9603E+00  0.1276E+02
  10.627  0.9576E+00  0.1277E+02
  10.637  0.9550E+00  0.1278E+02
  10.647  0.9523E+00  0.1279E+02
  10.657  0.9497E+00  0.1280E+02
  10.667  0.9471E+00  0.1281E+02
  10.677  0.9445E+00  0.1282E+02
  10.687  0.9418E+00  0.1283E+02
  10.697  0.9392E+00  0.1284E+02
  10.707  0.9365E+00  0.1285E+02
  10.717  0.1041E+01  0.1285E+02
  10.727  0.1015E+01  0.1287E+02
  10.737  0.9898E+00  0.1288E+02
  10.747  0.9653E+00  0.1288E+02
  10.757  0.9416E+00  0.1289E+02
  10.767  0.9187E+00  0.1290E+02
  10.777  0.8968E+00  0.1291E+02
  10.787  0.8765E+00  0.1292E+02
  10.797  0.8570E+00  0.1293E+02
  10.807  0.8383E+00  0.1294E+02
  10.817  0.8360E+00  0.1295E+02
  10.827  0.8357E+00  0.1296E+02
  10.837  0.8355E+00  0.1296E+02
  10.847  0.8353E+00  0.1297E+02
  10.857  0.8351E+00  0.1298E+02
  10.867  0.8349E+00  0.1299E+02
  10.877  0.8348E+00  0.1300E+02
  10.887  0.8347E+00  0.1301E+02
  10.897  0.8347E+00  0.1301E+02
  10.907  0.8346E+00  0.1302E+02
  10.917  0.8346E+00  0.1303E+02
  10.927  0.8346E+00  0.1304E+02
  10.937  0.8347E+00  0.1305E+02
  10.947  0.8348E+00  0.1306E+02
  10.957  0.8349E+00  0.1306E+02
  10.967  0.8350E+00  0.1307E+02
  10.977  0.8352E+00  0.1308E+02
  10.987  0.8354E+00  0.1309E+02
  10.997  0.8356E+00  0.1310E+02
  11.007  0.8358E+00  0.1311E+02
  11.017  0.8361E+00  0.1311E+02
  11.027  0.8364E+00  0.1312E+02
  11.037  0.8367E+00  0.1313E+02
  11.047  0.8371E+00  0.1314E+02
  11.057  0.8375E+00  0.1315E+02
  11.067  0.8379E+00  0.1316E+02
  11.077  0.8384E+00  0.1316E+02
  11.087  0.8388E+00  0.1317E+02
  11.097  0.8393E+00  0.1318E+02
  11.107  0.8399E+00  0.1319E+02
  11.117  0.8404E+00  0.1320E+02
  11.127  0.8410E+00  0.1321E+02
  11.137  0.8416E+00  0.1321E+02
  11.147  0.8423E+00  0.1322E+02
  11.157  0.8430E+00  0.1323E+02
  11.167  0.8437E+00  0.1324E+02
  11.177  0.8444E+00  0.1325E+02
  11.187  0.8451E+00  0.1326E+02
  11.197  0.8459E+00  0.1327E+02
  11.207  0.8467E+00  0.1327E+02
  11.217  0.8476E+00  0.1328E+02
  11.227  0.8485E+00  0.1329E+02
  11.237  0.8494E+00  0.1330E+02
  11.247  0.8503E+00  0.1331E+02
  11.257  0.8512E+00  0.1332E+02
  11.267  0.8522E+00  0.1332E+02
  11.277  0.8532E+00  0.1333E+02
  11.287  0.8543E+00  0.1334E+02
  11.297  0.8554E+00  0.1335E+02
  11.307  0.8565E+00  0.1336E+02
  11.317  0.8576E+00  0.1337E+02
  11.327  0.9572E+00  0.1338E+02
  11.337  0.9821E+00  0.1339E+02
  11.347  0.1006E+01  0.1340E+02
  11.357  0.1029E+01  0.1341E+02
  11.367  0.1051E+01  0.1342E+02
  11.377  0.1071E+01  0.1343E+02
  11.387  0.1091E+01  0.1344E+02
  11.397  0.1109E+01  0.1345E+02
  11.407  0.1126E+01  0.1346E+02
  11.417  0.1142E+01  0.1347E+02
  11.427  0.1157E+01  0.1348E+02
  11.437  0.1171E+01  0.1350E+02
  11.447  0.1186E+01  0.1351E+02
  11.457  0.1200E+01  0.1352E+02
  11.467  0.1213E+01  0.1353E+02
  11.477  0.1224E+01  0.1354E+02
  11.487  0.1235E+01  0.1356E+02
  11.497  0.1183E+01  0.1357E+02
  11.507  0.1180E+01  0.1358E+02
  11.517  0.1178E+01  0.1359E+02
  11.527  0.1175E+01  0.1360E+02
  11.537  0.1172E+01  0.1361E+02
  11.547  0.1169E+01  0.1363E+02
  11.557  0.1166E+01  0.1364E+02
  11.567  0.1163E+01  0.1365E+02
  11.577  0.1160E+01  0.1366E+02
  11.587  0.1156E+01  0.1367E+02
  11.597  0.1153E+01  0.1368E+02
  11.607  0.1149E+01  0.1370E+02
  11.617  0.1145E+01  0.1371E+02
  11.627  0.1142E+01  0.1372E+02
  11.637  0.1178E+01  0.1373E+02
  11.647  0.1183E+01  0.1374E+02
  11.657  0.1188E+01  0.1375E+02
  11.667  0.1193E+01  0.1377E+02
  11.677  0.1198E+01  0.1378E+02
  11.687  0.1203E+01  0.1379E+02
  11.697  0.1208E+01  0.1380E+02
  11.707  0.1213E+01  0.1381E+02
  11.717  0.1217E+01  0.1383E+02
  11.727  0.1222E+01  0.1384E+02
  11.737  0.1227E+01  0.1385E+02
  11.747  0.1231E+01  0.1386E+02
  11.757  0.1235E+01  0.1388E+02
  11.767  0.1240E+01  0.1389E+02
  11.777  0.1244E+01  0.1390E+02
  11.787  0.1248E+01  0.1391E+02
  11.797  0.1252E+01  0.1392E+02
  11.807  0.1256E+01  0.1394E+02
  11.817  0.1260E+01  0.1395E+02
  11.827  0.1264E+01  0.1396E+02
  11.837  0.1268E+01  0.1398E+02
  11.847  0.1272E+01  0.1399E+02
  11.857  0.1276E+01  0.1400E+02
  11.867  0.1279E+01  0.1401E+02
  11.877  0.1283E+01  0.1403E+02
  11.887  0.1287E+01  0.1404E+02
  11.897  0.1290E+01  0.1405E+02
  11.907  0.1293E+01  0.1406E+02
  11.917  0.1297E+01  0.1408E+02
  11.927  0.1300E+01  0.1409E+02
  11.937  0.1303E+01  0.1410E+02
  11.947  0.1306E+01  0.1412E+02
  11.957  0.1309E+01  0.1413E+02
  11.967  0.1312E+01  0.1414E+02
  11.977  0.1315E+01  0.1416E+02
  11.987  0.1318E+01  0.1417E+02
  11.997  0.1321E+01  0.1418E+02
  12.007  0.1325E+01  0.1420E+02
  12.017  0.1332E+01  0.1421E+02
  12.027  0.1340E+01  0.1422E+02
  12.037  0.1349E+01  0.1424E+02
  12.047  0.1358E+01  0.1425E+02
  12.057  0.1368E+01  0.1426E+02
  12.067  0.1379E+01  0.1428E+02
  12.077  0.1390E+01  0.1429E+02
  12.087  0.1401E+01  0.1430E+02
  12.097  0.1414E+01  0.1432E+02
  12.107  0.1427E+01  0.1433E+02
  12.117  0.1440E+01  0.1435E+02
  12.127  0.1454E+01  0.1436E+02
  12.137  0.1469E+01  0.1438E+02
  12.147  0.1484E+01  0.1439E+02
  12.157  0.1500E+01  0.1441E+02
  12.167  0.1517E+01  0.1442E+02
  12.177  0.1534E+01  0.1444E+02
  12.187  0.1553E+01  0.1445E+02
  12.197  0.1571E+01  0.1447E+02
  12.207  0.1588E+01  0.1448E+02
  12.217  0.1604E+01  0.1450E+02
  12.227  0.1620E+01  0.1452E+02
  12.237  0.1635E+01  0.1453E+02
  12.247  0.1648E+01  0.1455E+02
  12.257  0.1661E+01  0.1456E+02
  12.267  0.1673E+01  0.1458E+02
  12.277  0.1684E+01  0.1460E+02
  12.287  0.1693E+01  0.1461E+02
  12.297  0.1700E+01  0.1463E+02
  12.307  0.1706E+01  0.1465E+02
  12.317  0.1710E+01  0.1467E+02
  12.327  0.1713E+01  0.1468E+02
  12.337  0.1715E+01  0.1470E+02
  12.347  0.1715E+01  0.1472E+02
  12.357  0.1714E+01  0.1473E+02
  12.367  0.1711E+01  0.1475E+02
  12.377  0.1706E+01  0.1477E+02
  12.387  0.1701E+01  0.1479E+02
  12.397  0.1693E+01  0.1480E+02
  12.407  0.1692E+01  0.1482E+02
  12.417  0.1706E+01  0.1484E+02
  12.427  0.1736E+01  0.1485E+02
  12.437  0.1782E+01  0.1487E+02
  12.447  0.1844E+01  0.1489E+02
  12.457  0.1178E+01  0.1491E+02
  12.467  0.1160E+01  0.1492E+02
  12.477  0.1143E+01  0.1493E+02
  12.487  0.1126E+01  0.1494E+02
  12.497  0.1110E+01  0.1495E+02
  12.507  0.1094E+01  0.1496E+02
  12.517  0.1078E+01  0.1497E+02
  12.527  0.1064E+01  0.1498E+02
  12.537  0.1049E+01  0.1499E+02
  12.547  0.1036E+01  0.1500E+02
  12.557  0.1022E+01  0.1501E+02
  12.567  0.1010E+01  0.1502E+02
  12.577  0.9974E+00  0.1503E+02
  12.587  0.9857E+00  0.1504E+02
  12.597  0.9745E+00  0.1505E+02
  12.607  0.9639E+00  0.1506E+02
  12.617  0.9537E+00  0.1507E+02
  12.627  0.9441E+00  0.1508E+02
  12.637  0.9350E+00  0.1509E+02
  12.647  0.9265E+00  0.1510E+02
  12.657  0.9199E+00  0.1511E+02
  12.667  0.9132E+00  0.1512E+02
  12.677  0.9066E+00  0.1513E+02
  12.687  0.9000E+00  0.1514E+02
  12.697  0.8935E+00  0.1515E+02
  12.707  0.8870E+00  0.1516E+02
  12.717  0.8805E+00  0.1517E+02
  12.727  0.8741E+00  0.1517E+02
  12.737  0.8677E+00  0.1518E+02
  12.747  0.8613E+00  0.1519E+02
  12.757  0.8550E+00  0.1520E+02
  12.767  0.8487E+00  0.1521E+02
  12.777  0.8425E+00  0.1522E+02
  12.787  0.8363E+00  0.1523E+02
  12.797  0.8301E+00  0.1523E+02
  12.807  0.8240E+00  0.1524E+02
  12.817  0.8178E+00  0.1525E+02
  12.827  0.8118E+00  0.1526E+02
  12.837  0.8057E+00  0.1527E+02
  12.847  0.7998E+00  0.1527E+02
  12.857  0.7938E+00  0.1528E+02
  12.867  0.7879E+00  0.1529E+02
  12.877  0.7820E+00  0.1530E+02
  12.887  0.7761E+00  0.1531E+02
  12.897  0.7703E+00  0.1531E+02
  12.907  0.7645E+00  0.1532E+02
  12.917  0.7588E+00  0.1533E+02
  12.927  0.7531E+00  0.1534E+02
  12.937  0.7474E+00  0.1534E+02
  12.947  0.7418E+00  0.1535E+02
  12.957  0.7362E+00  0.1536E+02
  12.967  0.7306E+00  0.1537E+02
  12.977  0.7251E+00  0.1537E+02
  12.987  0.7196E+00  0.1538E+02
  12.997  0.7141E+00  0.1539E+02
  13.007  0.7087E+00  0.1540E+02
  13.017  0.7033E+00  0.1540E+02
  13.027  0.6980E+00  0.1541E+02
  13.037  0.6927E+00  0.1542E+02
  13.047  0.6874E+00  0.1542E+02
  13.057  0.6822E+00  0.1543E+02
  13.067  0.6770E+00  0.1544E+02
  13.077  0.6718E+00  0.1544E+02
  13.087  0.6667E+00  0.1545E+02
  13.097  0.6616E+00  0.1546E+02
  13.107  0.6565E+00  0.1546E+02
  13.117  0.6515E+00  0.1547E+02
  13.127  0.6465E+00  0.1548E+02
  13.137  0.6415E+00  0.1548E+02
  13.147  0.6366E+00  0.1549E+02
  13.157  0.6317E+00  0.1550E+02
  13.167  0.6269E+00  0.1550E+02
  13.177  0.6221E+00  0.1551E+02
  13.187  0.6173E+00  0.1551E+02
  13.197  0.6126E+00  0.1552E+02
  13.207  0.6079E+00  0.1553E+02
  13.217  0.6032E+00  0.1553E+02
  13.227  0.5985E+00  0.1554E+02
  13.237  0.5938E+00  0.1554E+02
  13.247  0.5891E+00  0.1555E+02
  13.257  0.5844E+00  0.1556E+02
  13.267  0.5798E+00  0.1556E+02
  13.277  0.5751E+00  0.1557E+02
  13.287  0.5705E+00  0.1557E+02
  13.297  0.5659E+00  0.1558E+02
  13.307  0.5612E+00  0.1558E+02
  13.317  0.5566E+00  0.1559E+02
  13.327  0.5520E+00  0.1560E+02
  13.337  0.5474E+00  0.1560E+02
  13.347  0.5429E+00  0.1561E+02
  13.357  0.5383E+00  0.1561E+02
  13.367  0.5337E+00  0.1562E+02
  13.377  0.5292E+00  0.1562E+02
  13.387  0.5247E+00  0.1563E+02
  13.397  0.5201E+00  0.1563E+02
  13.407  0.5156E+00  0.1564E+02
  13.417  0.5111E+00  0.1564E+02
  13.427  0.5066E+00  0.1565E+02
  13.437  0.5021E+00  0.1565E+02
  13.447  0.4976E+00  0.1566E+02
  13.457  0.4932E+00  0.1566E+02
  13.467  0.4887E+00  0.1567E+02
  13.477  0.4843E+00  0.1567E+02
  13.487  0.4798E+00  0.1568E+02
  13.497  0.4754E+00  0.1568E+02
  13.507  0.4710E+00  0.1569E+02
  13.517  0.4666E+00  0.1569E+02
  13.527  0.4618E+00  0.1570E+02
  13.537  0.4569E+00  0.1570E+02
  13.547  0.4520E+00  0.1571E+02
  13.557  0.4472E+00  0.1571E+02
  13.567  0.4423E+00  0.1572E+02
  13.577  0.4375E+00  0.1572E+02
  13.587  0.4327E+00  0.1572E+02
  13.597  0.4279E+00  0.1573E+02
  13.607  0.4232E+00  0.1573E+02
  13.617  0.4184E+00  0.1574E+02
  13.627  0.4137E+00  0.1574E+02
  13.637  0.4090E+00  0.1575E+02
  13.647  0.4044E+00  0.1575E+02
  13.657  0.3997E+00  0.1575E+02
  13.667  0.3951E+00  0.1576E+02
  13.677  0.3905E+00  0.1576E+02
  13.687  0.3859E+00  0.1577E+02
  13.697  0.3813E+00  0.1577E+02
  13.707  0.3767E+00  0.1577E+02
  13.717  0.3722E+00  0.1578E+02
  13.727  0.3677E+00  0.1578E+02
  13.737  0.3632E+00  0.1578E+02
  13.747  0.3587E+00  0.1579E+02
  13.757  0.3542E+00  0.1579E+02
  13.767  0.3498E+00  0.1579E+02
  13.777  0.3454E+00  0.1580E+02
  13.787  0.3410E+00  0.1580E+02
  13.797  0.3366E+00  0.1580E+02
  13.807  0.3323E+00  0.1581E+02
  13.817  0.3279E+00  0.1581E+02
  13.827  0.3236E+00  0.1581E+02
  13.837  0.3193E+00  0.1582E+02
  13.847  0.3150E+00  0.1582E+02
  13.857  0.3108E+00  0.1582E+02
  13.867  0.3065E+00  0.1583E+02
  13.877  0.3023E+00  0.1583E+02
  13.887  0.2981E+00  0.1583E+02
  13.897  0.2939E+00  0.1584E+02
  13.907  0.2898E+00  0.1584E+02
  13.917  0.2857E+00  0.1584E+02
  13.927  0.2815E+00  0.1584E+02
  13.937  0.2774E+00  0.1585E+02
  13.947  0.2734E+00  0.1585E+02
  13.957  0.2226E+00  0.1586E+02
  13.967  0.2207E+00  0.1586E+02
  13.977  0.2189E+00  0.1586E+02
  13.987  0.2171E+00  0.1586E+02
  13.997  0.2152E+00  0.1586E+02
  14.007  0.2134E+00  0.1587E+02
  14.017  0.2116E+00  0.1587E+02
  14.027  0.2098E+00  0.1587E+02
  14.037  0.2080E+00  0.1587E+02
  14.047  0.2063E+00  0.1587E+02
  14.057  0.2045E+00  0.1588E+02
  14.067  0.2028E+00  0.1588E+02
  14.077  0.2011E+00  0.1588E+02
  14.087  0.1993E+00  0.1588E+02
  14.097  0.1976E+00  0.1588E+02
  14.107  0.1959E+00  0.1589E+02
  14.117  0.1943E+00  0.1589E+02
  14.127  0.1926E+00  0.1589E+02
  14.137  0.1909E+00  0.1589E+02
  14.147  0.1893E+00  0.1589E+02
  14.157  0.1877E+00  0.1590E+02
  14.167  0.1860E+00  0.1590E+02
  14.177  0.1844E+00  0.1590E+02
  14.187  0.1828E+00  0.1590E+02
  14.197  0.1813E+00  0.1590E+02
  14.207  0.1797E+00  0.1591E+02
  14.217  0.1781E+00  0.1591E+02
  14.227  0.1766E+00  0.1591E+02
  14.237  0.1751E+00  0.1591E+02
  14.247  0.1735E+00  0.1591E+02
  14.257  0.1720E+00  0.1591E+02
  14.267  0.1705E+00  0.1592E+02
  14.277  0.1691E+00  0.1592E+02
  14.287  0.1676E+00  0.1592E+02
  14.297  0.1661E+00  0.1592E+02
  14.307  0.1647E+00  0.1592E+02
  14.317  0.1632E+00  0.1592E+02
  14.327  0.1618E+00  0.1593E+02
  14.337  0.1604E+00  0.1593E+02
  14.347  0.1590E+00  0.1593E+02
  14.357  0.1576E+00  0.1593E+02
  14.367  0.1563E+00  0.1593E+02
  14.377  0.1549E+00  0.1593E+02
  14.387  0.1536E+00  0.1594E+02
  14.397  0.1522E+00  0.1594E+02
  14.407  0.1509E+00  0.1594E+02
  14.417  0.1496E+00  0.1594E+02
  14.427  0.1483E+00  0.1594E+02
  14.437  0.1470E+00  0.1594E+02
  14.447  0.1457E+00  0.1594E+02
  14.457  0.1445E+00  0.1595E+02
  14.467  0.1432E+00  0.1595E+02
  14.477  0.1419E+00  0.1595E+02
  14.487  0.1405E+00  0.1595E+02
  14.497  0.1392E+00  0.1595E+02
  14.507  0.1379E+00  0.1595E+02
  14.517  0.1366E+00  0.1595E+02
  14.527  0.1353E+00  0.1596E+02
  14.537  0.1340E+00  0.1596E+02
  14.547  0.1327E+00  0.1596E+02
  14.557  0.1315E+00  0.1596E+02
  14.567  0.1303E+00  0.1596E+02
  14.577  0.1291E+00  0.1596E+02
  14.587  0.1279E+00  0.1596E+02
  14.597  0.1267E+00  0.1596E+02
  14.607  0.1255E+00  0.1597E+02
  14.617  0.1244E+00  0.1597E+02
  14.627  0.1232E+00  0.1597E+02
  14.637  0.1210E+00  0.1597E+02
  14.647  0.1185E+00  0.1597E+02
  14.657  0.1160E+00  0.1597E+02
  14.667  0.1136E+00  0.1597E+02
  14.677  0.1113E+00  0.1597E+02
  14.687  0.1091E+00  0.1598E+02
  14.697  0.1069E+00  0.1598E+02
  14.707  0.1049E+00  0.1598E+02
  14.717  0.1029E+00  0.1598E+02
  14.727  0.1010E+00  0.1598E+02
  14.737  0.9913E-01  0.1598E+02
  14.747  0.9737E-01  0.1598E+02
  14.757  0.9570E-01  0.1598E+02
  14.767  0.9410E-01  0.1598E+02
  14.777  0.9258E-01  0.1598E+02
  14.787  0.9114E-01  0.1599E+02
  14.797  0.8978E-01  0.1599E+02
  14.807  0.8850E-01  0.1599E+02
  14.817  0.8730E-01  0.1599E+02
  14.827  0.8618E-01  0.1599E+02
  14.837  0.8513E-01  0.1599E+02
  14.847  0.8417E-01  0.1599E+02
  14.857  0.8328E-01  0.1599E+02
  14.867  0.8203E-01  0.1599E+02
  14.877  0.8030E-01  0.1599E+02
  14.887  0.7808E-01  0.1599E+02
  14.897  0.7539E-01  0.1599E+02
  14.907  0.7222E-01  0.1600E+02
  14.917  0.6858E-01  0.1600E+02
  14.927  0.6446E-01  0.1600E+02
  14.937  0.5986E-01  0.1600E+02
  14.947  0.5478E-01  0.1600E+02
  14.957  0.4922E-01  0.1600E+02
  14.967  0.4319E-01  0.1600E+02
  14.977  0.3668E-01  0.1600E+02
  14.987  0.2970E-01  0.1600E+02
  14.997  0.2223E-01  0.1600E+02
  15.007  0.1429E-01  0.1600E+02
  15.017  0.5878E-02  0.1600E+02
