#  E (eV)   dos(E)     Int dos(E) EFermi =    6.347 eV
  -5.873  0.0000E+00  0.0000E+00
  -5.863  0.7891E-04  0.2630E-06
  -5.853  0.3157E-03  0.2104E-05
  -5.843  0.7102E-03  0.7102E-05
  -5.833  0.1263E-02  0.1683E-04
  -5.823  0.1973E-02  0.3288E-04
  -5.813  0.2841E-02  0.5682E-04
  -5.803  0.3867E-02  0.9022E-04
  -5.793  0.5050E-02  0.1347E-03
  -5.783  0.6392E-02  0.1918E-03
  -5.773  0.7891E-02  0.2630E-03
  -5.763  0.9549E-02  0.3501E-03
  -5.753  0.1136E-01  0.4545E-03
  -5.743  0.1334E-01  0.5779E-03
  -5.733  0.1547E-01  0.7218E-03
  -5.723  0.1776E-01  0.8878E-03
  -5.713  0.2020E-01  0.1077E-02
  -5.703  0.2281E-01  0.1292E-02
  -5.693  0.2557E-01  0.1534E-02
  -5.683  0.2849E-01  0.1804E-02
  -5.673  0.3157E-01  0.2104E-02
  -5.663  0.3480E-01  0.2436E-02
  -5.653  0.3819E-01  0.2801E-02
  -5.643  0.4175E-01  0.3200E-02
  -5.633  0.4545E-01  0.3636E-02
  -5.623  0.4932E-01  0.4110E-02
  -5.613  0.5335E-01  0.4623E-02
  -5.603  0.5753E-01  0.5178E-02
  -5.593  0.6187E-01  0.5774E-02
  -5.583  0.6637E-01  0.6415E-02
  -5.573  0.7102E-01  0.7102E-02
  -5.563  0.7584E-01  0.7836E-02
  -5.553  0.8081E-01  0.8619E-02
  -5.543  0.8594E-01  0.9453E-02
  -5.533  0.9122E-01  0.1034E-01
  -5.523  0.9667E-01  0.1128E-01
  -5.513  0.1198E+00  0.1231E-01
  -5.503  0.1664E+00  0.1374E-01
  -5.493  0.2052E+00  0.1561E-01
  -5.483  0.2363E+00  0.1782E-01
  -5.473  0.2596E+00  0.2031E-01
  -5.463  0.2753E+00  0.2299E-01
  -5.453  0.2833E+00  0.2579E-01
  -5.443  0.2836E+00  0.2863E-01
  -5.433  0.2761E+00  0.3143E-01
  -5.423  0.2610E+00  0.3413E-01
  -5.413  0.2381E+00  0.3663E-01
  -5.403  0.2075E+00  0.3886E-01
  -5.393  0.1806E+00  0.4077E-01
  -5.383  0.1833E+00  0.4259E-01
  -5.373  0.1861E+00  0.4443E-01
  -5.363  0.1888E+00  0.4631E-01
  -5.353  0.1916E+00  0.4821E-01
  -5.343  0.1943E+00  0.5014E-01
  -5.333  0.1971E+00  0.5210E-01
  -5.323  0.1999E+00  0.5408E-01
  -5.313  0.2027E+00  0.5609E-01
  -5.303  0.2056E+00  0.5814E-01
  -5.293  0.2084E+00  0.6021E-01
  -5.283  0.2113E+00  0.6230E-01
  -5.273  0.2142E+00  0.6443E-01
  -5.263  0.2171E+00  0.6659E-01
  -5.253  0.2200E+00  0.6877E-01
  -5.243  0.2229E+00  0.7099E-01
  -5.233  0.2258E+00  0.7323E-01
  -5.223  0.2288E+00  0.7550E-01
  -5.213  0.2318E+00  0.7781E-01
  -5.203  0.2348E+00  0.8014E-01
  -5.193  0.2378E+00  0.8250E-01
  -5.183  0.2408E+00  0.8490E-01
  -5.173  0.2439E+00  0.8732E-01
  -5.163  0.2469E+00  0.8977E-01
  -5.153  0.2500E+00  0.9226E-01
  -5.143  0.2531E+00  0.9477E-01
  -5.133  0.2562E+00  0.9732E-01
  -5.123  0.2593E+00  0.9990E-01
  -5.113  0.2624E+00  0.1025E+00
  -5.103  0.2656E+00  0.1051E+00
  -5.093  0.2688E+00  0.1078E+00
  -5.083  0.2720E+00  0.1105E+00
  -5.073  0.2752E+00  0.1133E+00
  -5.063  0.2784E+00  0.1160E+00
  -5.053  0.2816E+00  0.1188E+00
  -5.043  0.2849E+00  0.1217E+00
  -5.033  0.2881E+00  0.1245E+00
  -5.023  0.2914E+00  0.1274E+00
  -5.013  0.2947E+00  0.1303E+00
  -5.003  0.2980E+00  0.1333E+00
  -4.993  0.3013E+00  0.1363E+00
  -4.983  0.3047E+00  0.1393E+00
  -4.973  0.3081E+00  0.1424E+00
  -4.963  0.3114E+00  0.1455E+00
  -4.953  0.3148E+00  0.1486E+00
  -4.943  0.3182E+00  0.1518E+00
  -4.933  0.3224E+00  0.1550E+00
  -4.923  0.3279E+00  0.1583E+00
  -4.913  0.3333E+00  0.1616E+00
  -4.903  0.3386E+00  0.1649E+00
  -4.893  0.3437E+00  0.1683E+00
  -4.883  0.3487E+00  0.1718E+00
  -4.873  0.3537E+00  0.1753E+00
  -4.863  0.3585E+00  0.1789E+00
  -4.853  0.3632E+00  0.1825E+00
  -4.843  0.3678E+00  0.1861E+00
  -4.833  0.3722E+00  0.1898E+00
  -4.823  0.3766E+00  0.1936E+00
  -4.813  0.3809E+00  0.1974E+00
  -4.803  0.3850E+00  0.2012E+00
  -4.793  0.3890E+00  0.2051E+00
  -4.783  0.3930E+00  0.2090E+00
  -4.773  0.3968E+00  0.2129E+00
  -4.763  0.4005E+00  0.2169E+00
  -4.753  0.4040E+00  0.2209E+00
  -4.743  0.4075E+00  0.2250E+00
  -4.733  0.4109E+00  0.2291E+00
  -4.723  0.4141E+00  0.2332E+00
  -4.713  0.4173E+00  0.2374E+00
  -4.703  0.4203E+00  0.2415E+00
  -4.693  0.4232E+00  0.2458E+00
  -4.683  0.4260E+00  0.2500E+00
  -4.673  0.4287E+00  0.2543E+00
  -4.663  0.4313E+00  0.2586E+00
  -4.653  0.4338E+00  0.2629E+00
  -4.643  0.4361E+00  0.2673E+00
  -4.633  0.4384E+00  0.2716E+00
  -4.623  0.4405E+00  0.2760E+00
  -4.613  0.4425E+00  0.2804E+00
  -4.603  0.4444E+00  0.2849E+00
  -4.593  0.4462E+00  0.2893E+00
  -4.583  0.4407E+00  0.2938E+00
  -4.573  0.4352E+00  0.2981E+00
  -4.563  0.4310E+00  0.3025E+00
  -4.553  0.4282E+00  0.3068E+00
  -4.543  0.4267E+00  0.3110E+00
  -4.533  0.4266E+00  0.3153E+00
  -4.523  0.4279E+00  0.3196E+00
  -4.513  0.4305E+00  0.3239E+00
  -4.503  0.4335E+00  0.3282E+00
  -4.493  0.4366E+00  0.3325E+00
  -4.483  0.4397E+00  0.3369E+00
  -4.473  0.4428E+00  0.3413E+00
  -4.463  0.4460E+00  0.3458E+00
  -4.453  0.4492E+00  0.3503E+00
  -4.443  0.4524E+00  0.3548E+00
  -4.433  0.4557E+00  0.3593E+00
  -4.423  0.4590E+00  0.3639E+00
  -4.413  0.4624E+00  0.3685E+00
  -4.403  0.4657E+00  0.3731E+00
  -4.393  0.4692E+00  0.3778E+00
  -4.383  0.4726E+00  0.3825E+00
  -4.373  0.4761E+00  0.3873E+00
  -4.363  0.4797E+00  0.3920E+00
  -4.353  0.4832E+00  0.3968E+00
  -4.343  0.4868E+00  0.4017E+00
  -4.333  0.4905E+00  0.4066E+00
  -4.323  0.4942E+00  0.4115E+00
  -4.313  0.4979E+00  0.4165E+00
  -4.303  0.5016E+00  0.4215E+00
  -4.293  0.5054E+00  0.4265E+00
  -4.283  0.5093E+00  0.4316E+00
  -4.273  0.5131E+00  0.4367E+00
  -4.263  0.5170E+00  0.4418E+00
  -4.253  0.5210E+00  0.4470E+00
  -4.243  0.5249E+00  0.4523E+00
  -4.233  0.5289E+00  0.4575E+00
  -4.223  0.5330E+00  0.4628E+00
  -4.213  0.5371E+00  0.4682E+00
  -4.203  0.5412E+00  0.4736E+00
  -4.193  0.5453E+00  0.4790E+00
  -4.183  0.5495E+00  0.4845E+00
  -4.173  0.5538E+00  0.4900E+00
  -4.163  0.5580E+00  0.4956E+00
  -4.153  0.5623E+00  0.5012E+00
  -4.143  0.5667E+00  0.5068E+00
  -4.133  0.5710E+00  0.5125E+00
  -4.123  0.5755E+00  0.5182E+00
  -4.113  0.5799E+00  0.5240E+00
  -4.103  0.5844E+00  0.5298E+00
  -4.093  0.5889E+00  0.5357E+00
  -4.083  0.5935E+00  0.5416E+00
  -4.073  0.5981E+00  0.5476E+00
  -4.063  0.6027E+00  0.5536E+00
  -4.053  0.6074E+00  0.5596E+00
  -4.043  0.6121E+00  0.5657E+00
  -4.033  0.6168E+00  0.5719E+00
  -4.023  0.6216E+00  0.5780E+00
  -4.013  0.6264E+00  0.5843E+00
  -4.003  0.6313E+00  0.5906E+00
  -3.993  0.6361E+00  0.5969E+00
  -3.983  0.6411E+00  0.6033E+00
  -3.973  0.6460E+00  0.6097E+00
  -3.963  0.6509E+00  0.6162E+00
  -3.953  0.6559E+00  0.6228E+00
  -3.943  0.6609E+00  0.6293E+00
  -3.933  0.6659E+00  0.6360E+00
  -3.923  0.6710E+00  0.6427E+00
  -3.913  0.6760E+00  0.6494E+00
  -3.903  0.6811E+00  0.6562E+00
  -3.893  0.6862E+00  0.6630E+00
  -3.883  0.6913E+00  0.6699E+00
  -3.873  0.6965E+00  0.6768E+00
  -3.863  0.7017E+00  0.6838E+00
  -3.853  0.7068E+00  0.6909E+00
  -3.843  0.7121E+00  0.6980E+00
  -3.833  0.7173E+00  0.7051E+00
  -3.823  0.7225E+00  0.7123E+00
  -3.813  0.7278E+00  0.7196E+00
  -3.803  0.7331E+00  0.7269E+00
  -3.793  0.7452E+00  0.7342E+00
  -3.783  0.7716E+00  0.7418E+00
  -3.773  0.7967E+00  0.7497E+00
  -3.763  0.8206E+00  0.7578E+00
  -3.753  0.8433E+00  0.7661E+00
  -3.743  0.8648E+00  0.7746E+00
  -3.733  0.8851E+00  0.7834E+00
  -3.723  0.9041E+00  0.7923E+00
  -3.713  0.9220E+00  0.8014E+00
  -3.703  0.9386E+00  0.8107E+00
  -3.693  0.9540E+00  0.8202E+00
  -3.683  0.9681E+00  0.8298E+00
  -3.673  0.9811E+00  0.8396E+00
  -3.663  0.9928E+00  0.8494E+00
  -3.653  0.1003E+01  0.8594E+00
  -3.643  0.1013E+01  0.8695E+00
  -3.633  0.1021E+01  0.8797E+00
  -3.623  0.1028E+01  0.8899E+00
  -3.613  0.1033E+01  0.9002E+00
  -3.603  0.1037E+01  0.9106E+00
  -3.593  0.1039E+01  0.9210E+00
  -3.583  0.1040E+01  0.9314E+00
  -3.573  0.1040E+01  0.9418E+00
  -3.563  0.1038E+01  0.9522E+00
  -3.553  0.1036E+01  0.9625E+00
  -3.543  0.1032E+01  0.9729E+00
  -3.533  0.1027E+01  0.9832E+00
  -3.523  0.1021E+01  0.9934E+00
  -3.513  0.1013E+01  0.1004E+01
  -3.503  0.1005E+01  0.1014E+01
  -3.493  0.9954E+00  0.1024E+01
  -3.483  0.9848E+00  0.1034E+01
  -3.473  0.9731E+00  0.1043E+01
  -3.463  0.9602E+00  0.1053E+01
  -3.453  0.9462E+00  0.1063E+01
  -3.443  0.9311E+00  0.1072E+01
  -3.433  0.9149E+00  0.1081E+01
  -3.423  0.8976E+00  0.1090E+01
  -3.413  0.8851E+00  0.1099E+01
  -3.403  0.8834E+00  0.1108E+01
  -3.393  0.8818E+00  0.1117E+01
  -3.383  0.8803E+00  0.1126E+01
  -3.373  0.8788E+00  0.1134E+01
  -3.363  0.8773E+00  0.1143E+01
  -3.353  0.8759E+00  0.1152E+01
  -3.343  0.8746E+00  0.1161E+01
  -3.333  0.8732E+00  0.1169E+01
  -3.323  0.8720E+00  0.1178E+01
  -3.313  0.8707E+00  0.1187E+01
  -3.303  0.8695E+00  0.1196E+01
  -3.293  0.8684E+00  0.1204E+01
  -3.283  0.8673E+00  0.1213E+01
  -3.273  0.8662E+00  0.1222E+01
  -3.263  0.8652E+00  0.1230E+01
  -3.253  0.8642E+00  0.1239E+01
  -3.243  0.8633E+00  0.1248E+01
  -3.233  0.8624E+00  0.1256E+01
  -3.223  0.8615E+00  0.1265E+01
  -3.213  0.8607E+00  0.1273E+01
  -3.203  0.8600E+00  0.1282E+01
  -3.193  0.8592E+00  0.1291E+01
  -3.183  0.8586E+00  0.1299E+01
  -3.173  0.8579E+00  0.1308E+01
  -3.163  0.8573E+00  0.1316E+01
  -3.153  0.8568E+00  0.1325E+01
  -3.143  0.8563E+00  0.1333E+01
  -3.133  0.8558E+00  0.1342E+01
  -3.123  0.8554E+00  0.1351E+01
  -3.113  0.8551E+00  0.1359E+01
  -3.103  0.8547E+00  0.1368E+01
  -3.093  0.8545E+00  0.1376E+01
  -3.083  0.8542E+00  0.1385E+01
  -3.073  0.8540E+00  0.1393E+01
  -3.063  0.8539E+00  0.1402E+01
  -3.053  0.8538E+00  0.1410E+01
  -3.043  0.8537E+00  0.1419E+01
  -3.033  0.8537E+00  0.1427E+01
  -3.023  0.8537E+00  0.1436E+01
  -3.013  0.8538E+00  0.1445E+01
  -3.003  0.8539E+00  0.1453E+01
  -2.993  0.8540E+00  0.1462E+01
  -2.983  0.8542E+00  0.1470E+01
  -2.973  0.8545E+00  0.1479E+01
  -2.963  0.8547E+00  0.1487E+01
  -2.953  0.8551E+00  0.1496E+01
  -2.943  0.8554E+00  0.1504E+01
  -2.933  0.8558E+00  0.1513E+01
  -2.923  0.8563E+00  0.1521E+01
  -2.913  0.8568E+00  0.1530E+01
  -2.903  0.8573E+00  0.1539E+01
  -2.893  0.8579E+00  0.1547E+01
  -2.883  0.8586E+00  0.1556E+01
  -2.873  0.8592E+00  0.1564E+01
  -2.863  0.8600E+00  0.1573E+01
  -2.853  0.8607E+00  0.1582E+01
  -2.843  0.8607E+00  0.1590E+01
  -2.833  0.8590E+00  0.1599E+01
  -2.823  0.8567E+00  0.1607E+01
  -2.813  0.8535E+00  0.1616E+01
  -2.803  0.8496E+00  0.1624E+01
  -2.793  0.8450E+00  0.1633E+01
  -2.783  0.8396E+00  0.1641E+01
  -2.773  0.8334E+00  0.1650E+01
  -2.763  0.8265E+00  0.1658E+01
  -2.753  0.8189E+00  0.1666E+01
  -2.743  0.8105E+00  0.1674E+01
  -2.733  0.8013E+00  0.1682E+01
  -2.723  0.7914E+00  0.1690E+01
  -2.713  0.7808E+00  0.1698E+01
  -2.703  0.7694E+00  0.1706E+01
  -2.693  0.7572E+00  0.1714E+01
  -2.683  0.7443E+00  0.1721E+01
  -2.673  0.7306E+00  0.1729E+01
  -2.663  0.7162E+00  0.1736E+01
  -2.653  0.7007E+00  0.1743E+01
  -2.643  0.6406E+00  0.1750E+01
  -2.633  0.6303E+00  0.1756E+01
  -2.623  0.6200E+00  0.1762E+01
  -2.613  0.6099E+00  0.1768E+01
  -2.603  0.5998E+00  0.1774E+01
  -2.593  0.5897E+00  0.1780E+01
  -2.583  0.5798E+00  0.1786E+01
  -2.573  0.5699E+00  0.1792E+01
  -2.563  0.5602E+00  0.1798E+01
  -2.553  0.5504E+00  0.1803E+01
  -2.543  0.5408E+00  0.1809E+01
  -2.533  0.5313E+00  0.1814E+01
  -2.523  0.5218E+00  0.1819E+01
  -2.513  0.5124E+00  0.1824E+01
  -2.503  0.5030E+00  0.1829E+01
  -2.493  0.4938E+00  0.1834E+01
  -2.483  0.4846E+00  0.1839E+01
  -2.473  0.4755E+00  0.1844E+01
  -2.463  0.4665E+00  0.1849E+01
  -2.453  0.4575E+00  0.1853E+01
  -2.443  0.4487E+00  0.1858E+01
  -2.433  0.4399E+00  0.1862E+01
  -2.423  0.4312E+00  0.1867E+01
  -2.413  0.4225E+00  0.1871E+01
  -2.403  0.4140E+00  0.1875E+01
  -2.393  0.4055E+00  0.1879E+01
  -2.383  0.3971E+00  0.1883E+01
  -2.373  0.3887E+00  0.1887E+01
  -2.363  0.3805E+00  0.1891E+01
  -2.353  0.3723E+00  0.1895E+01
  -2.343  0.3642E+00  0.1899E+01
  -2.333  0.3561E+00  0.1902E+01
  -2.323  0.3482E+00  0.1906E+01
  -2.313  0.3403E+00  0.1909E+01
  -2.303  0.3325E+00  0.1913E+01
  -2.293  0.3248E+00  0.1916E+01
  -2.283  0.3171E+00  0.1919E+01
  -2.273  0.3096E+00  0.1922E+01
  -2.263  0.3021E+00  0.1925E+01
  -2.253  0.2947E+00  0.1928E+01
  -2.243  0.2873E+00  0.1931E+01
  -2.233  0.2800E+00  0.1934E+01
  -2.223  0.2729E+00  0.1937E+01
  -2.213  0.2657E+00  0.1939E+01
  -2.203  0.2587E+00  0.1942E+01
  -2.193  0.2517E+00  0.1945E+01
  -2.183  0.2449E+00  0.1947E+01
  -2.173  0.2381E+00  0.1949E+01
  -2.163  0.2313E+00  0.1952E+01
  -2.153  0.2247E+00  0.1954E+01
  -2.143  0.2181E+00  0.1956E+01
  -2.133  0.2116E+00  0.1958E+01
  -2.123  0.2052E+00  0.1961E+01
  -2.113  0.1988E+00  0.1963E+01
  -2.103  0.1925E+00  0.1965E+01
  -2.093  0.1863E+00  0.1966E+01
  -2.083  0.1802E+00  0.1968E+01
  -2.073  0.1742E+00  0.1970E+01
  -2.063  0.1682E+00  0.1972E+01
  -2.053  0.1623E+00  0.1973E+01
  -2.043  0.1565E+00  0.1975E+01
  -2.033  0.1508E+00  0.1977E+01
  -2.023  0.1451E+00  0.1978E+01
  -2.013  0.1395E+00  0.1979E+01
  -2.003  0.1340E+00  0.1981E+01
  -1.993  0.1286E+00  0.1982E+01
  -1.983  0.1232E+00  0.1983E+01
  -1.973  0.1179E+00  0.1985E+01
  -1.963  0.1127E+00  0.1986E+01
  -1.953  0.1076E+00  0.1987E+01
  -1.943  0.1025E+00  0.1988E+01
  -1.933  0.9757E-01  0.1989E+01
  -1.923  0.9267E-01  0.1990E+01
  -1.913  0.8785E-01  0.1991E+01
  -1.903  0.8311E-01  0.1992E+01
  -1.893  0.7844E-01  0.1992E+01
  -1.883  0.7384E-01  0.1993E+01
  -1.873  0.6933E-01  0.1994E+01
  -1.863  0.6489E-01  0.1995E+01
  -1.853  0.6052E-01  0.1995E+01
  -1.843  0.5623E-01  0.1996E+01
  -1.833  0.5202E-01  0.1996E+01
  -1.823  0.4789E-01  0.1997E+01
  -1.813  0.4383E-01  0.1997E+01
  -1.803  0.3985E-01  0.1998E+01
  -1.793  0.3594E-01  0.1998E+01
  -1.783  0.3212E-01  0.1998E+01
  -1.773  0.2854E-01  0.1999E+01
  -1.763  0.2523E-01  0.1999E+01
  -1.753  0.2221E-01  0.1999E+01
  -1.743  0.1948E-01  0.1999E+01
  -1.733  0.1702E-01  0.2000E+01
  -1.723  0.1485E-01  0.2000E+01
  -1.713  0.1297E-01  0.2000E+01
  -1.703  0.1136E-01  0.2000E+01
  -1.693  0.1004E-01  0.2000E+01
  -1.683  0.9004E-02  0.2000E+01
  -1.673  0.8249E-02  0.2000E+01
  -1.663  0.9722E-02  0.2000E+01
  -1.653  0.1334E-01  0.2000E+01
  -1.643  0.1707E-01  0.2001E+01
  -1.633  0.2090E-01  0.2001E+01
  -1.623  0.2484E-01  0.2001E+01
  -1.613  0.2888E-01  0.2001E+01
  -1.603  0.3303E-01  0.2002E+01
  -1.593  0.3728E-01  0.2002E+01
  -1.583  0.4164E-01  0.2002E+01
  -1.573  0.4610E-01  0.2003E+01
  -1.563  0.5067E-01  0.2003E+01
  -1.553  0.5534E-01  0.2004E+01
  -1.543  0.6012E-01  0.2004E+01
  -1.533  0.6500E-01  0.2005E+01
  -1.523  0.6999E-01  0.2006E+01
  -1.513  0.7508E-01  0.2006E+01
  -1.503  0.8027E-01  0.2007E+01
  -1.493  0.8557E-01  0.2008E+01
  -1.483  0.9098E-01  0.2009E+01
  -1.473  0.9649E-01  0.2010E+01
  -1.463  0.1021E+00  0.2011E+01
  -1.453  0.1078E+00  0.2012E+01
  -1.443  0.1137E+00  0.2013E+01
  -1.433  0.1196E+00  0.2014E+01
  -1.423  0.1256E+00  0.2015E+01
  -1.413  0.1318E+00  0.2017E+01
  -1.403  0.1380E+00  0.2018E+01
  -1.393  0.1444E+00  0.2019E+01
  -1.383  0.1508E+00  0.2021E+01
  -1.373  0.1574E+00  0.2022E+01
  -1.363  0.1640E+00  0.2024E+01
  -1.353  0.1708E+00  0.2026E+01
  -1.343  0.1777E+00  0.2027E+01
  -1.333  0.1847E+00  0.2029E+01
  -1.323  0.1917E+00  0.2031E+01
  -1.313  0.1989E+00  0.2033E+01
  -1.303  0.2062E+00  0.2035E+01
  -1.293  0.2136E+00  0.2037E+01
  -1.283  0.2211E+00  0.2039E+01
  -1.273  0.2287E+00  0.2042E+01
  -1.263  0.2365E+00  0.2044E+01
  -1.253  0.2443E+00  0.2046E+01
  -1.243  0.2522E+00  0.2049E+01
  -1.233  0.2602E+00  0.2051E+01
  -1.223  0.2684E+00  0.2054E+01
  -1.213  0.2766E+00  0.2057E+01
  -1.203  0.2849E+00  0.2060E+01
  -1.193  0.2934E+00  0.2063E+01
  -1.183  0.3019E+00  0.2065E+01
  -1.173  0.3106E+00  0.2069E+01
  -1.163  0.3194E+00  0.2072E+01
  -1.153  0.3282E+00  0.2075E+01
  -1.143  0.3372E+00  0.2078E+01
  -1.133  0.3463E+00  0.2082E+01
  -1.123  0.3555E+00  0.2085E+01
  -1.113  0.3647E+00  0.2089E+01
  -1.103  0.3741E+00  0.2092E+01
  -1.093  0.3836E+00  0.2096E+01
  -1.083  0.3932E+00  0.2100E+01
  -1.073  0.4029E+00  0.2104E+01
  -1.063  0.4128E+00  0.2108E+01
  -1.053  0.4227E+00  0.2112E+01
  -1.043  0.4327E+00  0.2117E+01
  -1.033  0.4428E+00  0.2121E+01
  -1.023  0.4531E+00  0.2126E+01
  -1.013  0.4634E+00  0.2130E+01
  -1.003  0.4738E+00  0.2135E+01
  -0.993  0.4844E+00  0.2140E+01
  -0.983  0.4950E+00  0.2144E+01
  -0.973  0.5058E+00  0.2149E+01
  -0.963  0.5166E+00  0.2155E+01
  -0.953  0.5276E+00  0.2160E+01
  -0.943  0.5388E+00  0.2165E+01
  -0.933  0.5516E+00  0.2171E+01
  -0.923  0.5662E+00  0.2176E+01
  -0.913  0.5826E+00  0.2182E+01
  -0.903  0.6009E+00  0.2188E+01
  -0.893  0.6211E+00  0.2194E+01
  -0.883  0.6432E+00  0.2200E+01
  -0.873  0.6671E+00  0.2207E+01
  -0.863  0.6928E+00  0.2214E+01
  -0.853  0.7205E+00  0.2221E+01
  -0.843  0.7499E+00  0.2228E+01
  -0.833  0.7813E+00  0.2236E+01
  -0.823  0.8216E+00  0.2244E+01
  -0.813  0.8913E+00  0.2252E+01
  -0.803  0.9540E+00  0.2261E+01
  -0.793  0.1010E+01  0.2271E+01
  -0.783  0.1058E+01  0.2282E+01
  -0.773  0.1100E+01  0.2292E+01
  -0.763  0.1135E+01  0.2304E+01
  -0.753  0.1162E+01  0.2315E+01
  -0.743  0.1185E+01  0.2327E+01
  -0.733  0.1204E+01  0.2339E+01
  -0.723  0.1220E+01  0.2351E+01
  -0.713  0.1233E+01  0.2363E+01
  -0.703  0.1242E+01  0.2376E+01
  -0.693  0.1248E+01  0.2388E+01
  -0.683  0.1251E+01  0.2401E+01
  -0.673  0.1250E+01  0.2413E+01
  -0.663  0.1246E+01  0.2426E+01
  -0.653  0.1238E+01  0.2438E+01
  -0.643  0.1227E+01  0.2450E+01
  -0.633  0.1213E+01  0.2462E+01
  -0.623  0.1195E+01  0.2475E+01
  -0.613  0.1175E+01  0.2486E+01
  -0.603  0.1150E+01  0.2498E+01
  -0.593  0.1123E+01  0.2509E+01
  -0.583  0.1115E+01  0.2521E+01
  -0.573  0.1122E+01  0.2532E+01
  -0.563  0.1121E+01  0.2543E+01
  -0.553  0.1112E+01  0.2554E+01
  -0.543  0.1108E+01  0.2565E+01
  -0.533  0.1104E+01  0.2576E+01
  -0.523  0.1101E+01  0.2587E+01
  -0.513  0.1098E+01  0.2598E+01
  -0.503  0.1094E+01  0.2609E+01
  -0.493  0.1090E+01  0.2620E+01
  -0.483  0.1087E+01  0.2631E+01
  -0.473  0.1083E+01  0.2642E+01
  -0.463  0.1079E+01  0.2653E+01
  -0.453  0.1075E+01  0.2663E+01
  -0.443  0.1070E+01  0.2674E+01
  -0.433  0.1066E+01  0.2685E+01
  -0.423  0.1061E+01  0.2696E+01
  -0.413  0.1057E+01  0.2706E+01
  -0.403  0.1052E+01  0.2717E+01
  -0.393  0.1047E+01  0.2727E+01
  -0.383  0.1042E+01  0.2738E+01
  -0.373  0.1037E+01  0.2748E+01
  -0.363  0.1032E+01  0.2758E+01
  -0.353  0.1027E+01  0.2769E+01
  -0.343  0.1021E+01  0.2779E+01
  -0.333  0.1016E+01  0.2789E+01
  -0.323  0.1010E+01  0.2799E+01
  -0.313  0.1004E+01  0.2809E+01
  -0.303  0.9981E+00  0.2819E+01
  -0.293  0.9920E+00  0.2829E+01
  -0.283  0.9858E+00  0.2839E+01
  -0.273  0.9795E+00  0.2849E+01
  -0.263  0.9731E+00  0.2859E+01
  -0.253  0.9666E+00  0.2868E+01
  -0.243  0.9599E+00  0.2878E+01
  -0.233  0.9532E+00  0.2888E+01
  -0.223  0.9463E+00  0.2897E+01
  -0.213  0.9393E+00  0.2906E+01
  -0.203  0.9322E+00  0.2916E+01
  -0.193  0.9249E+00  0.2925E+01
  -0.183  0.9175E+00  0.2934E+01
  -0.173  0.9101E+00  0.2943E+01
  -0.163  0.9025E+00  0.2953E+01
  -0.153  0.8947E+00  0.2962E+01
  -0.143  0.8869E+00  0.2970E+01
  -0.133  0.8789E+00  0.2979E+01
  -0.123  0.8709E+00  0.2988E+01
  -0.113  0.8627E+00  0.2997E+01
  -0.103  0.8543E+00  0.3005E+01
  -0.093  0.8459E+00  0.3014E+01
  -0.083  0.8373E+00  0.3022E+01
  -0.073  0.8287E+00  0.3031E+01
  -0.063  0.8199E+00  0.3039E+01
  -0.053  0.8110E+00  0.3047E+01
  -0.043  0.8019E+00  0.3055E+01
  -0.033  0.7928E+00  0.3063E+01
  -0.023  0.7835E+00  0.3071E+01
  -0.013  0.7741E+00  0.3079E+01
  -0.003  0.7646E+00  0.3086E+01
   0.007  0.7545E+00  0.3094E+01
   0.017  0.7438E+00  0.3101E+01
   0.027  0.7332E+00  0.3109E+01
   0.037  0.7228E+00  0.3116E+01
   0.047  0.7126E+00  0.3123E+01
   0.057  0.7025E+00  0.3130E+01
   0.067  0.6927E+00  0.3137E+01
   0.077  0.6830E+00  0.3144E+01
   0.087  0.6735E+00  0.3151E+01
   0.097  0.6642E+00  0.3158E+01
   0.107  0.6550E+00  0.3164E+01
   0.117  0.6461E+00  0.3171E+01
   0.127  0.6373E+00  0.3177E+01
   0.137  0.6287E+00  0.3184E+01
   0.147  0.6203E+00  0.3190E+01
   0.157  0.6121E+00  0.3196E+01
   0.167  0.6040E+00  0.3202E+01
   0.177  0.5961E+00  0.3208E+01
   0.187  0.5885E+00  0.3214E+01
   0.197  0.5810E+00  0.3220E+01
   0.207  0.5736E+00  0.3226E+01
   0.217  0.5665E+00  0.3231E+01
   0.227  0.5595E+00  0.3237E+01
   0.237  0.5528E+00  0.3242E+01
   0.247  0.5462E+00  0.3248E+01
   0.257  0.5398E+00  0.3253E+01
   0.267  0.5335E+00  0.3259E+01
   0.277  0.5275E+00  0.3264E+01
   0.287  0.5216E+00  0.3269E+01
   0.297  0.5159E+00  0.3274E+01
   0.307  0.5104E+00  0.3280E+01
   0.317  0.5051E+00  0.3285E+01
   0.327  0.4999E+00  0.3290E+01
   0.337  0.4950E+00  0.3295E+01
   0.347  0.4902E+00  0.3300E+01
   0.357  0.4856E+00  0.3304E+01
   0.367  0.4815E+00  0.3309E+01
   0.377  0.4775E+00  0.3314E+01
   0.387  0.4735E+00  0.3319E+01
   0.397  0.4696E+00  0.3324E+01
   0.407  0.4657E+00  0.3328E+01
   0.417  0.4619E+00  0.3333E+01
   0.427  0.4582E+00  0.3337E+01
   0.437  0.4545E+00  0.3342E+01
   0.447  0.4508E+00  0.3347E+01
   0.457  0.4472E+00  0.3351E+01
   0.467  0.4437E+00  0.3356E+01
   0.477  0.4402E+00  0.3360E+01
   0.487  0.4368E+00  0.3364E+01
   0.497  0.4334E+00  0.3369E+01
   0.507  0.4301E+00  0.3373E+01
   0.517  0.4268E+00  0.3377E+01
   0.527  0.4236E+00  0.3382E+01
   0.537  0.4204E+00  0.3386E+01
   0.547  0.4173E+00  0.3390E+01
   0.557  0.4142E+00  0.3394E+01
   0.567  0.4112E+00  0.3398E+01
   0.577  0.4083E+00  0.3402E+01
   0.587  0.4054E+00  0.3406E+01
   0.597  0.4025E+00  0.3410E+01
   0.607  0.3997E+00  0.3414E+01
   0.617  0.3970E+00  0.3418E+01
   0.627  0.3943E+00  0.3422E+01
   0.637  0.3916E+00  0.3426E+01
   0.647  0.3890E+00  0.3430E+01
   0.657  0.3865E+00  0.3434E+01
   0.667  0.3840E+00  0.3438E+01
   0.677  0.3816E+00  0.3442E+01
   0.687  0.3792E+00  0.3446E+01
   0.697  0.3767E+00  0.3449E+01
   0.707  0.3743E+00  0.3453E+01
   0.717  0.3719E+00  0.3457E+01
   0.727  0.3695E+00  0.3461E+01
   0.737  0.3672E+00  0.3464E+01
   0.747  0.3648E+00  0.3468E+01
   0.757  0.3624E+00  0.3472E+01
   0.767  0.3601E+00  0.3475E+01
   0.777  0.3578E+00  0.3479E+01
   0.787  0.3554E+00  0.3482E+01
   0.797  0.3531E+00  0.3486E+01
   0.807  0.3508E+00  0.3489E+01
   0.817  0.3485E+00  0.3493E+01
   0.827  0.3462E+00  0.3496E+01
   0.837  0.3440E+00  0.3500E+01
   0.847  0.3417E+00  0.3503E+01
   0.857  0.3395E+00  0.3507E+01
   0.867  0.3372E+00  0.3510E+01
   0.877  0.3350E+00  0.3513E+01
   0.887  0.3328E+00  0.3517E+01
   0.897  0.3306E+00  0.3520E+01
   0.907  0.3284E+00  0.3523E+01
   0.917  0.3262E+00  0.3527E+01
   0.927  0.3240E+00  0.3530E+01
   0.937  0.3219E+00  0.3533E+01
   0.947  0.3197E+00  0.3536E+01
   0.957  0.3176E+00  0.3539E+01
   0.967  0.3154E+00  0.3543E+01
   0.977  0.3133E+00  0.3546E+01
   0.987  0.3112E+00  0.3549E+01
   0.997  0.3091E+00  0.3552E+01
   1.007  0.3071E+00  0.3555E+01
   1.017  0.3050E+00  0.3558E+01
   1.027  0.3030E+00  0.3561E+01
   1.037  0.3010E+00  0.3564E+01
   1.047  0.2990E+00  0.3567E+01
   1.057  0.2970E+00  0.3570E+01
   1.067  0.2951E+00  0.3573E+01
   1.077  0.2931E+00  0.3576E+01
   1.087  0.2912E+00  0.3579E+01
   1.097  0.2894E+00  0.3582E+01
   1.107  0.2875E+00  0.3585E+01
   1.117  0.2856E+00  0.3588E+01
   1.127  0.2838E+00  0.3590E+01
   1.137  0.2820E+00  0.3593E+01
   1.147  0.2802E+00  0.3596E+01
   1.157  0.2784E+00  0.3599E+01
   1.167  0.2767E+00  0.3602E+01
   1.177  0.2750E+00  0.3604E+01
   1.187  0.2733E+00  0.3607E+01
   1.197  0.2716E+00  0.3610E+01
   1.207  0.2699E+00  0.3613E+01
   1.217  0.2682E+00  0.3615E+01
   1.227  0.2666E+00  0.3618E+01
   1.237  0.2650E+00  0.3621E+01
   1.247  0.2634E+00  0.3623E+01
   1.257  0.2618E+00  0.3626E+01
   1.267  0.2603E+00  0.3629E+01
   1.277  0.2588E+00  0.3631E+01
   1.287  0.2573E+00  0.3634E+01
   1.297  0.2558E+00  0.3636E+01
   1.307  0.2543E+00  0.3639E+01
   1.317  0.2528E+00  0.3641E+01
   1.327  0.2514E+00  0.3644E+01
   1.337  0.2500E+00  0.3646E+01
   1.347  0.2486E+00  0.3649E+01
   1.357  0.2472E+00  0.3651E+01
   1.367  0.2459E+00  0.3654E+01
   1.377  0.2446E+00  0.3656E+01
   1.387  0.2432E+00  0.3659E+01
   1.397  0.2419E+00  0.3661E+01
   1.407  0.2407E+00  0.3664E+01
   1.417  0.2394E+00  0.3666E+01
   1.427  0.2382E+00  0.3668E+01
   1.437  0.2370E+00  0.3671E+01
   1.447  0.2358E+00  0.3673E+01
   1.457  0.2346E+00  0.3675E+01
   1.467  0.2335E+00  0.3678E+01
   1.477  0.2323E+00  0.3680E+01
   1.487  0.2312E+00  0.3682E+01
   1.497  0.2301E+00  0.3685E+01
   1.507  0.2291E+00  0.3687E+01
   1.517  0.2280E+00  0.3689E+01
   1.527  0.2270E+00  0.3692E+01
   1.537  0.2260E+00  0.3694E+01
   1.547  0.2250E+00  0.3696E+01
   1.557  0.2240E+00  0.3698E+01
   1.567  0.2230E+00  0.3701E+01
   1.577  0.2219E+00  0.3703E+01
   1.587  0.2209E+00  0.3705E+01
   1.597  0.2200E+00  0.3707E+01
   1.607  0.2197E+00  0.3709E+01
   1.617  0.2202E+00  0.3712E+01
   1.627  0.2212E+00  0.3714E+01
   1.637  0.2230E+00  0.3716E+01
   1.647  0.2255E+00  0.3718E+01
   1.657  0.2286E+00  0.3721E+01
   1.667  0.2325E+00  0.3723E+01
   1.677  0.2370E+00  0.3725E+01
   1.687  0.2422E+00  0.3728E+01
   1.697  0.2480E+00  0.3730E+01
   1.707  0.2546E+00  0.3733E+01
   1.717  0.2619E+00  0.3735E+01
   1.727  0.2698E+00  0.3738E+01
   1.737  0.2784E+00  0.3741E+01
   1.747  0.2877E+00  0.3743E+01
   1.757  0.2977E+00  0.3746E+01
   1.767  0.3083E+00  0.3749E+01
   1.777  0.3197E+00  0.3752E+01
   1.787  0.3317E+00  0.3756E+01
   1.797  0.3444E+00  0.3759E+01
   1.807  0.3578E+00  0.3763E+01
   1.817  0.3719E+00  0.3766E+01
   1.827  0.3866E+00  0.3770E+01
   1.837  0.4021E+00  0.3774E+01
   1.847  0.4182E+00  0.3778E+01
   1.857  0.4350E+00  0.3782E+01
   1.867  0.4525E+00  0.3787E+01
   1.877  0.4707E+00  0.3791E+01
   1.887  0.4895E+00  0.3796E+01
   1.897  0.5091E+00  0.3801E+01
   1.907  0.5293E+00  0.3806E+01
   1.917  0.5502E+00  0.3812E+01
   1.927  0.5718E+00  0.3817E+01
   1.937  0.5941E+00  0.3823E+01
   1.947  0.6170E+00  0.3829E+01
   1.957  0.6406E+00  0.3836E+01
   1.967  0.6650E+00  0.3842E+01
   1.977  0.6900E+00  0.3849E+01
   1.987  0.7157E+00  0.3856E+01
   1.997  0.7352E+00  0.3863E+01
   2.007  0.7532E+00  0.3871E+01
   2.017  0.7714E+00  0.3878E+01
   2.027  0.7898E+00  0.3886E+01
   2.037  0.8084E+00  0.3894E+01
   2.047  0.8272E+00  0.3902E+01
   2.057  0.8462E+00  0.3911E+01
   2.067  0.8653E+00  0.3919E+01
   2.077  0.8847E+00  0.3928E+01
   2.087  0.9043E+00  0.3937E+01
   2.097  0.9240E+00  0.3946E+01
   2.107  0.9440E+00  0.3955E+01
   2.117  0.9641E+00  0.3965E+01
   2.127  0.9845E+00  0.3975E+01
   2.137  0.1005E+01  0.3985E+01
   2.147  0.1026E+01  0.3995E+01
   2.157  0.1047E+01  0.4005E+01
   2.167  0.1068E+01  0.4016E+01
   2.177  0.1089E+01  0.4026E+01
   2.187  0.1111E+01  0.4037E+01
   2.197  0.1132E+01  0.4049E+01
   2.207  0.1154E+01  0.4060E+01
   2.217  0.1176E+01  0.4072E+01
   2.227  0.1199E+01  0.4084E+01
   2.237  0.1221E+01  0.4096E+01
   2.247  0.1244E+01  0.4108E+01
   2.257  0.1267E+01  0.4121E+01
   2.267  0.1290E+01  0.4133E+01
   2.277  0.1314E+01  0.4146E+01
   2.287  0.1338E+01  0.4160E+01
   2.297  0.1362E+01  0.4173E+01
   2.307  0.1387E+01  0.4187E+01
   2.317  0.1412E+01  0.4201E+01
   2.327  0.1436E+01  0.4215E+01
   2.337  0.1462E+01  0.4230E+01
   2.347  0.1487E+01  0.4244E+01
   2.357  0.1941E+01  0.4260E+01
   2.367  0.2068E+01  0.4286E+01
   2.377  0.1653E+01  0.4303E+01
   2.387  0.1612E+01  0.4320E+01
   2.397  0.1558E+01  0.4335E+01
   2.407  0.1491E+01  0.4351E+01
   2.417  0.1409E+01  0.4365E+01
   2.427  0.1314E+01  0.4379E+01
   2.437  0.1303E+01  0.4392E+01
   2.447  0.1297E+01  0.4405E+01
   2.457  0.1291E+01  0.4418E+01
   2.467  0.1285E+01  0.4431E+01
   2.477  0.1280E+01  0.4444E+01
   2.487  0.1274E+01  0.4456E+01
   2.497  0.1269E+01  0.4469E+01
   2.507  0.1264E+01  0.4482E+01
   2.517  0.1259E+01  0.4494E+01
   2.527  0.1254E+01  0.4507E+01
   2.537  0.1250E+01  0.4519E+01
   2.547  0.1245E+01  0.4532E+01
   2.557  0.1241E+01  0.4544E+01
   2.567  0.1237E+01  0.4557E+01
   2.577  0.1234E+01  0.4569E+01
   2.587  0.1230E+01  0.4581E+01
   2.597  0.1227E+01  0.4594E+01
   2.607  0.1223E+01  0.4606E+01
   2.617  0.1220E+01  0.4618E+01
   2.627  0.1218E+01  0.4630E+01
   2.637  0.1215E+01  0.4642E+01
   2.647  0.1213E+01  0.4655E+01
   2.657  0.1210E+01  0.4667E+01
   2.667  0.1208E+01  0.4679E+01
   2.677  0.1206E+01  0.4691E+01
   2.687  0.1205E+01  0.4703E+01
   2.697  0.1203E+01  0.4715E+01
   2.707  0.1202E+01  0.4727E+01
   2.717  0.1201E+01  0.4739E+01
   2.727  0.1200E+01  0.4751E+01
   2.737  0.1199E+01  0.4763E+01
   2.747  0.1199E+01  0.4775E+01
   2.757  0.1198E+01  0.4787E+01
   2.767  0.1198E+01  0.4799E+01
   2.777  0.1198E+01  0.4811E+01
   2.787  0.1198E+01  0.4823E+01
   2.797  0.1199E+01  0.4835E+01
   2.807  0.1199E+01  0.4847E+01
   2.817  0.1200E+01  0.4859E+01
   2.827  0.1201E+01  0.4871E+01
   2.837  0.1202E+01  0.4883E+01
   2.847  0.1204E+01  0.4895E+01
   2.857  0.1205E+01  0.4907E+01
   2.867  0.1207E+01  0.4919E+01
   2.877  0.1209E+01  0.4931E+01
   2.887  0.1211E+01  0.4943E+01
   2.897  0.1213E+01  0.4955E+01
   2.907  0.1215E+01  0.4967E+01
   2.917  0.1218E+01  0.4980E+01
   2.927  0.1221E+01  0.4992E+01
   2.937  0.1224E+01  0.5004E+01
   2.947  0.1235E+01  0.5016E+01
   2.957  0.1251E+01  0.5029E+01
   2.967  0.1265E+01  0.5041E+01
   2.977  0.1278E+01  0.5054E+01
   2.987  0.1290E+01  0.5067E+01
   2.997  0.1301E+01  0.5080E+01
   3.007  0.1311E+01  0.5093E+01
   3.017  0.1320E+01  0.5106E+01
   3.027  0.1327E+01  0.5119E+01
   3.037  0.1334E+01  0.5133E+01
   3.047  0.1339E+01  0.5146E+01
   3.057  0.1343E+01  0.5159E+01
   3.067  0.1346E+01  0.5173E+01
   3.077  0.1347E+01  0.5186E+01
   3.087  0.1348E+01  0.5200E+01
   3.097  0.1348E+01  0.5213E+01
   3.107  0.1346E+01  0.5227E+01
   3.117  0.1343E+01  0.5240E+01
   3.127  0.1339E+01  0.5254E+01
   3.137  0.1334E+01  0.5267E+01
   3.147  0.1328E+01  0.5280E+01
   3.157  0.1320E+01  0.5294E+01
   3.167  0.1313E+01  0.5307E+01
   3.177  0.1305E+01  0.5320E+01
   3.187  0.1297E+01  0.5333E+01
   3.197  0.1289E+01  0.5346E+01
   3.207  0.1281E+01  0.5359E+01
   3.217  0.1294E+01  0.5371E+01
   3.227  0.1309E+01  0.5384E+01
   3.237  0.1326E+01  0.5398E+01
   3.247  0.1345E+01  0.5411E+01
   3.257  0.1365E+01  0.5425E+01
   3.267  0.1385E+01  0.5438E+01
   3.277  0.1406E+01  0.5452E+01
   3.287  0.1426E+01  0.5466E+01
   3.297  0.1447E+01  0.5481E+01
   3.307  0.1469E+01  0.5495E+01
   3.317  0.1491E+01  0.5510E+01
   3.327  0.1513E+01  0.5525E+01
   3.337  0.1536E+01  0.5540E+01
   3.347  0.1558E+01  0.5556E+01
   3.357  0.1582E+01  0.5572E+01
   3.367  0.1605E+01  0.5588E+01
   3.377  0.1629E+01  0.5604E+01
   3.387  0.1654E+01  0.5620E+01
   3.397  0.1678E+01  0.5637E+01
   3.407  0.1704E+01  0.5654E+01
   3.417  0.1729E+01  0.5671E+01
   3.427  0.1755E+01  0.5688E+01
   3.437  0.1781E+01  0.5706E+01
   3.447  0.1807E+01  0.5724E+01
   3.457  0.1817E+01  0.5742E+01
   3.467  0.1824E+01  0.5760E+01
   3.477  0.1830E+01  0.5778E+01
   3.487  0.1835E+01  0.5797E+01
   3.497  0.1839E+01  0.5815E+01
   3.507  0.1841E+01  0.5834E+01
   3.517  0.1842E+01  0.5852E+01
   3.527  0.1842E+01  0.5870E+01
   3.537  0.1841E+01  0.5889E+01
   3.547  0.1838E+01  0.5907E+01
   3.557  0.1835E+01  0.5926E+01
   3.567  0.1830E+01  0.5944E+01
   3.577  0.1825E+01  0.5962E+01
   3.587  0.1823E+01  0.5980E+01
   3.597  0.1822E+01  0.5999E+01
   3.607  0.1823E+01  0.6017E+01
   3.617  0.1824E+01  0.6035E+01
   3.627  0.1822E+01  0.6053E+01
   3.637  0.1820E+01  0.6072E+01
   3.647  0.1816E+01  0.6090E+01
   3.657  0.1811E+01  0.6108E+01
   3.667  0.1804E+01  0.6126E+01
   3.677  0.1796E+01  0.6144E+01
   3.687  0.1787E+01  0.6162E+01
   3.697  0.1776E+01  0.6180E+01
   3.707  0.1767E+01  0.6197E+01
   3.717  0.1757E+01  0.6215E+01
   3.727  0.1747E+01  0.6233E+01
   3.737  0.1737E+01  0.6250E+01
   3.747  0.1726E+01  0.6267E+01
   3.757  0.1715E+01  0.6284E+01
   3.767  0.1704E+01  0.6302E+01
   3.777  0.1692E+01  0.6319E+01
   3.787  0.1680E+01  0.6335E+01
   3.797  0.1668E+01  0.6352E+01
   3.807  0.1655E+01  0.6369E+01
   3.817  0.1642E+01  0.6385E+01
   3.827  0.1629E+01  0.6402E+01
   3.837  0.1615E+01  0.6418E+01
   3.847  0.1601E+01  0.6434E+01
   3.857  0.1586E+01  0.6450E+01
   3.867  0.1572E+01  0.6466E+01
   3.877  0.1556E+01  0.6481E+01
   3.887  0.1541E+01  0.6497E+01
   3.897  0.1525E+01  0.6512E+01
   3.907  0.1508E+01  0.6527E+01
   3.917  0.1490E+01  0.6542E+01
   3.927  0.1476E+01  0.6557E+01
   3.937  0.1465E+01  0.6572E+01
   3.947  0.1453E+01  0.6586E+01
   3.957  0.1441E+01  0.6601E+01
   3.967  0.1429E+01  0.6615E+01
   3.977  0.1416E+01  0.6629E+01
   3.987  0.1402E+01  0.6643E+01
   3.997  0.1398E+01  0.6657E+01
   4.007  0.1394E+01  0.6671E+01
   4.017  0.1391E+01  0.6685E+01
   4.027  0.1387E+01  0.6699E+01
   4.037  0.1383E+01  0.6713E+01
   4.047  0.1378E+01  0.6727E+01
   4.057  0.1374E+01  0.6741E+01
   4.067  0.1370E+01  0.6754E+01
   4.077  0.1366E+01  0.6768E+01
   4.087  0.1362E+01  0.6782E+01
   4.097  0.1357E+01  0.6795E+01
   4.107  0.1353E+01  0.6809E+01
   4.117  0.1348E+01  0.6822E+01
   4.127  0.1344E+01  0.6836E+01
   4.137  0.1339E+01  0.6849E+01
   4.147  0.1334E+01  0.6863E+01
   4.157  0.1330E+01  0.6876E+01
   4.167  0.1325E+01  0.6889E+01
   4.177  0.1320E+01  0.6902E+01
   4.187  0.1315E+01  0.6916E+01
   4.197  0.1310E+01  0.6929E+01
   4.207  0.1305E+01  0.6942E+01
   4.217  0.1300E+01  0.6955E+01
   4.227  0.1342E+01  0.6968E+01
   4.237  0.1382E+01  0.6982E+01
   4.247  0.1407E+01  0.6996E+01
   4.257  0.1406E+01  0.7010E+01
   4.267  0.1403E+01  0.7024E+01
   4.277  0.1400E+01  0.7038E+01
   4.287  0.1396E+01  0.7052E+01
   4.297  0.1392E+01  0.7066E+01
   4.307  0.1388E+01  0.7080E+01
   4.317  0.1383E+01  0.7093E+01
   4.327  0.1378E+01  0.7107E+01
   4.337  0.1373E+01  0.7121E+01
   4.347  0.1368E+01  0.7135E+01
   4.357  0.1362E+01  0.7148E+01
   4.367  0.1356E+01  0.7162E+01
   4.377  0.1350E+01  0.7175E+01
   4.387  0.1343E+01  0.7189E+01
   4.397  0.1336E+01  0.7202E+01
   4.407  0.1329E+01  0.7216E+01
   4.417  0.1321E+01  0.7229E+01
   4.427  0.1313E+01  0.7242E+01
   4.437  0.1305E+01  0.7255E+01
   4.447  0.1297E+01  0.7268E+01
   4.457  0.1288E+01  0.7281E+01
   4.467  0.1279E+01  0.7294E+01
   4.477  0.1270E+01  0.7307E+01
   4.487  0.1260E+01  0.7319E+01
   4.497  0.1250E+01  0.7332E+01
   4.507  0.1240E+01  0.7344E+01
   4.517  0.1229E+01  0.7357E+01
   4.527  0.1218E+01  0.7369E+01
   4.537  0.1207E+01  0.7381E+01
   4.547  0.1196E+01  0.7393E+01
   4.557  0.1184E+01  0.7405E+01
   4.567  0.1172E+01  0.7417E+01
   4.577  0.1160E+01  0.7428E+01
   4.587  0.1147E+01  0.7440E+01
   4.597  0.1134E+01  0.7451E+01
   4.607  0.1121E+01  0.7463E+01
   4.617  0.1108E+01  0.7474E+01
   4.627  0.1094E+01  0.7485E+01
   4.637  0.1080E+01  0.7496E+01
   4.647  0.1066E+01  0.7506E+01
   4.657  0.1051E+01  0.7517E+01
   4.667  0.1036E+01  0.7527E+01
   4.677  0.1021E+01  0.7538E+01
   4.687  0.1005E+01  0.7548E+01
   4.697  0.9891E+00  0.7558E+01
   4.707  0.9721E+00  0.7568E+01
   4.717  0.9550E+00  0.7577E+01
   4.727  0.9379E+00  0.7587E+01
   4.737  0.9206E+00  0.7596E+01
   4.747  0.9032E+00  0.7605E+01
   4.757  0.8857E+00  0.7614E+01
   4.767  0.8681E+00  0.7623E+01
   4.777  0.8504E+00  0.7631E+01
   4.787  0.8326E+00  0.7640E+01
   4.797  0.8146E+00  0.7648E+01
   4.807  0.7969E+00  0.7656E+01
   4.817  0.7796E+00  0.7664E+01
   4.827  0.7630E+00  0.7672E+01
   4.837  0.7469E+00  0.7679E+01
   4.847  0.7313E+00  0.7687E+01
   4.857  0.7163E+00  0.7694E+01
   4.867  0.7018E+00  0.7701E+01
   4.877  0.6879E+00  0.7708E+01
   4.887  0.6745E+00  0.7715E+01
   4.897  0.6617E+00  0.7721E+01
   4.907  0.6495E+00  0.7728E+01
   4.917  0.6378E+00  0.7734E+01
   4.927  0.6266E+00  0.7741E+01
   4.937  0.6160E+00  0.7747E+01
   4.947  0.6059E+00  0.7753E+01
   4.957  0.5964E+00  0.7759E+01
   4.967  0.5875E+00  0.7765E+01
   4.977  0.5791E+00  0.7771E+01
   4.987  0.5712E+00  0.7777E+01
   4.997  0.5638E+00  0.7782E+01
   5.007  0.5563E+00  0.7788E+01
   5.017  0.5488E+00  0.7793E+01
   5.027  0.5413E+00  0.7799E+01
   5.037  0.5338E+00  0.7804E+01
   5.047  0.5263E+00  0.7809E+01
   5.057  0.5188E+00  0.7815E+01
   5.067  0.5113E+00  0.7820E+01
   5.077  0.5037E+00  0.7825E+01
   5.087  0.4962E+00  0.7830E+01
   5.097  0.4887E+00  0.7835E+01
   5.107  0.4811E+00  0.7840E+01
   5.117  0.4736E+00  0.7844E+01
   5.127  0.4660E+00  0.7849E+01
   5.137  0.4585E+00  0.7854E+01
   5.147  0.4509E+00  0.7858E+01
   5.157  0.4433E+00  0.7863E+01
   5.167  0.4357E+00  0.7867E+01
   5.177  0.4282E+00  0.7872E+01
   5.187  0.4206E+00  0.7876E+01
   5.197  0.4130E+00  0.7880E+01
   5.207  0.4054E+00  0.7884E+01
   5.217  0.3978E+00  0.7888E+01
   5.227  0.3902E+00  0.7892E+01
   5.237  0.3825E+00  0.7896E+01
   5.247  0.3749E+00  0.7900E+01
   5.257  0.3673E+00  0.7903E+01
   5.267  0.3596E+00  0.7907E+01
   5.277  0.3520E+00  0.7911E+01
   5.287  0.3444E+00  0.7914E+01
   5.297  0.3367E+00  0.7917E+01
   5.307  0.3290E+00  0.7921E+01
   5.317  0.3214E+00  0.7924E+01
   5.327  0.3137E+00  0.7927E+01
   5.337  0.3060E+00  0.7930E+01
   5.347  0.2983E+00  0.7933E+01
   5.357  0.2906E+00  0.7936E+01
   5.367  0.2829E+00  0.7939E+01
   5.377  0.2752E+00  0.7942E+01
   5.387  0.2675E+00  0.7945E+01
   5.397  0.2598E+00  0.7947E+01
   5.407  0.2521E+00  0.7950E+01
   5.417  0.2444E+00  0.7952E+01
   5.427  0.2455E+00  0.7955E+01
   5.437  0.2517E+00  0.7957E+01
   5.447  0.2546E+00  0.7960E+01
   5.457  0.2542E+00  0.7962E+01
   5.467  0.2506E+00  0.7965E+01
   5.477  0.2437E+00  0.7967E+01
   5.487  0.2335E+00  0.7970E+01
   5.497  0.2200E+00  0.7972E+01
   5.507  0.2033E+00  0.7974E+01
   5.517  0.1833E+00  0.7976E+01
   5.527  0.1601E+00  0.7978E+01
   5.537  0.1398E+00  0.7979E+01
   5.547  0.1336E+00  0.7981E+01
   5.557  0.1275E+00  0.7982E+01
   5.567  0.1216E+00  0.7983E+01
   5.577  0.1158E+00  0.7984E+01
   5.587  0.1102E+00  0.7985E+01
   5.597  0.1047E+00  0.7987E+01
   5.607  0.9936E-01  0.7988E+01
   5.617  0.9415E-01  0.7989E+01
   5.627  0.8908E-01  0.7989E+01
   5.637  0.8414E-01  0.7990E+01
   5.647  0.7935E-01  0.7991E+01
   5.657  0.7470E-01  0.7992E+01
   5.667  0.7019E-01  0.7993E+01
   5.677  0.6582E-01  0.7993E+01
   5.687  0.6159E-01  0.7994E+01
   5.697  0.5750E-01  0.7995E+01
   5.707  0.5355E-01  0.7995E+01
   5.717  0.4974E-01  0.7996E+01
   5.727  0.4608E-01  0.7996E+01
   5.737  0.4255E-01  0.7997E+01
   5.747  0.3916E-01  0.7997E+01
   5.757  0.3592E-01  0.7997E+01
   5.767  0.3281E-01  0.7998E+01
   5.777  0.2984E-01  0.7998E+01
   5.787  0.2702E-01  0.7998E+01
   5.797  0.2433E-01  0.7998E+01
   5.807  0.2179E-01  0.7999E+01
   5.817  0.1939E-01  0.7999E+01
   5.827  0.1712E-01  0.7999E+01
   5.837  0.1500E-01  0.7999E+01
   5.847  0.1302E-01  0.7999E+01
   5.857  0.1117E-01  0.8000E+01
   5.867  0.9473E-02  0.8000E+01
   5.877  0.7912E-02  0.8000E+01
   5.887  0.6492E-02  0.8000E+01
   5.897  0.5211E-02  0.8000E+01
   5.907  0.4072E-02  0.8000E+01
   5.917  0.3072E-02  0.8000E+01
   5.927  0.2214E-02  0.8000E+01
   5.937  0.1495E-02  0.8000E+01
   5.947  0.9175E-03  0.8000E+01
   5.957  0.4800E-03  0.8000E+01
   5.967  0.1830E-03  0.8000E+01
   5.977  0.2651E-04  0.8000E+01
   5.987  0.0000E+00  0.8000E+01
   5.997  0.0000E+00  0.8000E+01
   6.007  0.0000E+00  0.8000E+01
   6.017  0.0000E+00  0.8000E+01
   6.027  0.0000E+00  0.8000E+01
   6.037  0.0000E+00  0.8000E+01
   6.047  0.0000E+00  0.8000E+01
   6.057  0.0000E+00  0.8000E+01
   6.067  0.0000E+00  0.8000E+01
   6.077  0.0000E+00  0.8000E+01
   6.087  0.0000E+00  0.8000E+01
   6.097  0.0000E+00  0.8000E+01
   6.107  0.0000E+00  0.8000E+01
   6.117  0.0000E+00  0.8000E+01
   6.127  0.0000E+00  0.8000E+01
   6.137  0.0000E+00  0.8000E+01
   6.147  0.0000E+00  0.8000E+01
   6.157  0.0000E+00  0.8000E+01
   6.167  0.0000E+00  0.8000E+01
   6.177  0.0000E+00  0.8000E+01
   6.187  0.0000E+00  0.8000E+01
   6.197  0.0000E+00  0.8000E+01
   6.207  0.0000E+00  0.8000E+01
   6.217  0.0000E+00  0.8000E+01
   6.227  0.0000E+00  0.8000E+01
   6.237  0.0000E+00  0.8000E+01
   6.247  0.0000E+00  0.8000E+01
   6.257  0.0000E+00  0.8000E+01
   6.267  0.0000E+00  0.8000E+01
   6.277  0.0000E+00  0.8000E+01
   6.287  0.0000E+00  0.8000E+01
   6.297  0.0000E+00  0.8000E+01
   6.307  0.0000E+00  0.8000E+01
   6.317  0.0000E+00  0.8000E+01
   6.327  0.0000E+00  0.8000E+01
   6.337  0.0000E+00  0.8000E+01
   6.347  0.0000E+00  0.8000E+01
   6.357  0.0000E+00  0.8000E+01
   6.367  0.0000E+00  0.8000E+01
   6.377  0.0000E+00  0.8000E+01
   6.387  0.0000E+00  0.8000E+01
   6.397  0.0000E+00  0.8000E+01
   6.407  0.0000E+00  0.8000E+01
   6.417  0.0000E+00  0.8000E+01
   6.427  0.0000E+00  0.8000E+01
   6.437  0.0000E+00  0.8000E+01
   6.447  0.0000E+00  0.8000E+01
   6.457  0.0000E+00  0.8000E+01
   6.467  0.0000E+00  0.8000E+01
   6.477  0.0000E+00  0.8000E+01
   6.487  0.0000E+00  0.8000E+01
   6.497  0.0000E+00  0.8000E+01
   6.507  0.0000E+00  0.8000E+01
   6.517  0.0000E+00  0.8000E+01
   6.527  0.0000E+00  0.8000E+01
   6.537  0.0000E+00  0.8000E+01
   6.547  0.0000E+00  0.8000E+01
   6.557  0.0000E+00  0.8000E+01
   6.567  0.0000E+00  0.8000E+01
   6.577  0.0000E+00  0.8000E+01
   6.587  0.0000E+00  0.8000E+01
   6.597  0.0000E+00  0.8000E+01
   6.607  0.1049E-02  0.8000E+01
   6.617  0.4203E-02  0.8000E+01
   6.627  0.8484E-02  0.8000E+01
   6.637  0.1292E-01  0.8000E+01
   6.647  0.1751E-01  0.8000E+01
   6.657  0.2226E-01  0.8001E+01
   6.667  0.2717E-01  0.8001E+01
   6.677  0.3223E-01  0.8001E+01
   6.687  0.3745E-01  0.8001E+01
   6.697  0.4283E-01  0.8002E+01
   6.707  0.4836E-01  0.8002E+01
   6.717  0.5405E-01  0.8003E+01
   6.727  0.5990E-01  0.8003E+01
   6.737  0.6590E-01  0.8004E+01
   6.747  0.7206E-01  0.8005E+01
   6.757  0.7837E-01  0.8005E+01
   6.767  0.8484E-01  0.8006E+01
   6.777  0.9147E-01  0.8007E+01
   6.787  0.9825E-01  0.8008E+01
   6.797  0.1052E+00  0.8009E+01
   6.807  0.1123E+00  0.8010E+01
   6.817  0.1195E+00  0.8011E+01
   6.827  0.1270E+00  0.8013E+01
   6.837  0.1345E+00  0.8014E+01
   6.847  0.1422E+00  0.8015E+01
   6.857  0.1501E+00  0.8017E+01
   6.867  0.1582E+00  0.8018E+01
   6.877  0.1663E+00  0.8020E+01
   6.887  0.1747E+00  0.8022E+01
   6.897  0.1832E+00  0.8023E+01
   6.907  0.1919E+00  0.8025E+01
   6.917  0.2007E+00  0.8027E+01
   6.927  0.2097E+00  0.8029E+01
   6.937  0.2188E+00  0.8031E+01
   6.947  0.2281E+00  0.8034E+01
   6.957  0.2319E+00  0.8036E+01
   6.967  0.2345E+00  0.8038E+01
   6.977  0.2373E+00  0.8041E+01
   6.987  0.2402E+00  0.8043E+01
   6.997  0.2431E+00  0.8045E+01
   7.007  0.2462E+00  0.8048E+01
   7.017  0.2493E+00  0.8050E+01
   7.027  0.2526E+00  0.8053E+01
   7.037  0.2560E+00  0.8055E+01
   7.047  0.2594E+00  0.8058E+01
   7.057  0.2630E+00  0.8061E+01
   7.067  0.2666E+00  0.8063E+01
   7.077  0.2704E+00  0.8066E+01
   7.087  0.2742E+00  0.8069E+01
   7.097  0.2782E+00  0.8071E+01
   7.107  0.2823E+00  0.8074E+01
   7.117  0.2864E+00  0.8077E+01
   7.127  0.2907E+00  0.8080E+01
   7.137  0.2950E+00  0.8083E+01
   7.147  0.2995E+00  0.8086E+01
   7.157  0.3040E+00  0.8089E+01
   7.167  0.3087E+00  0.8092E+01
   7.177  0.3134E+00  0.8095E+01
   7.187  0.3183E+00  0.8098E+01
   7.197  0.3232E+00  0.8101E+01
   7.207  0.3283E+00  0.8105E+01
   7.217  0.3334E+00  0.8108E+01
   7.227  0.3387E+00  0.8111E+01
   7.237  0.3440E+00  0.8115E+01
   7.247  0.3495E+00  0.8118E+01
   7.257  0.3550E+00  0.8122E+01
   7.267  0.3607E+00  0.8125E+01
   7.277  0.3664E+00  0.8129E+01
   7.287  0.3723E+00  0.8133E+01
   7.297  0.3782E+00  0.8136E+01
   7.307  0.3843E+00  0.8140E+01
   7.317  0.3904E+00  0.8144E+01
   7.327  0.3967E+00  0.8148E+01
   7.337  0.4030E+00  0.8152E+01
   7.347  0.4095E+00  0.8156E+01
   7.357  0.4160E+00  0.8160E+01
   7.367  0.4227E+00  0.8164E+01
   7.377  0.4299E+00  0.8169E+01
   7.387  0.4378E+00  0.8173E+01
   7.397  0.4463E+00  0.8177E+01
   7.407  0.4555E+00  0.8182E+01
   7.417  0.4653E+00  0.8187E+01
   7.427  0.4758E+00  0.8191E+01
   7.437  0.4870E+00  0.8196E+01
   7.447  0.4989E+00  0.8201E+01
   7.457  0.5113E+00  0.8206E+01
   7.467  0.5241E+00  0.8211E+01
   7.477  0.5374E+00  0.8217E+01
   7.487  0.5511E+00  0.8222E+01
   7.497  0.5652E+00  0.8228E+01
   7.507  0.5798E+00  0.8233E+01
   7.517  0.5949E+00  0.8239E+01
   7.527  0.6103E+00  0.8245E+01
   7.537  0.6263E+00  0.8251E+01
   7.547  0.6426E+00  0.8258E+01
   7.557  0.6594E+00  0.8264E+01
   7.567  0.6766E+00  0.8271E+01
   7.577  0.6943E+00  0.8278E+01
   7.587  0.7124E+00  0.8285E+01
   7.597  0.7353E+00  0.8292E+01
   7.607  0.7797E+00  0.8300E+01
   7.617  0.8260E+00  0.8308E+01
   7.627  0.8713E+00  0.8316E+01
   7.637  0.9155E+00  0.8325E+01
   7.647  0.9587E+00  0.8334E+01
   7.657  0.1001E+01  0.8344E+01
   7.667  0.1042E+01  0.8354E+01
   7.677  0.1082E+01  0.8365E+01
   7.687  0.1121E+01  0.8376E+01
   7.697  0.1159E+01  0.8387E+01
   7.707  0.1196E+01  0.8399E+01
   7.717  0.1232E+01  0.8411E+01
   7.727  0.1267E+01  0.8424E+01
   7.737  0.1301E+01  0.8437E+01
   7.747  0.1333E+01  0.8450E+01
   7.757  0.1365E+01  0.8463E+01
   7.767  0.1396E+01  0.8477E+01
   7.777  0.1425E+01  0.8491E+01
   7.787  0.1454E+01  0.8506E+01
   7.797  0.1482E+01  0.8520E+01
   7.807  0.1508E+01  0.8535E+01
   7.817  0.1534E+01  0.8551E+01
   7.827  0.1558E+01  0.8566E+01
   7.837  0.1582E+01  0.8582E+01
   7.847  0.1604E+01  0.8598E+01
   7.857  0.1620E+01  0.8614E+01
   7.867  0.1627E+01  0.8630E+01
   7.877  0.1635E+01  0.8646E+01
   7.887  0.1644E+01  0.8663E+01
   7.897  0.1654E+01  0.8679E+01
   7.907  0.1665E+01  0.8696E+01
   7.917  0.1676E+01  0.8712E+01
   7.927  0.1693E+01  0.8729E+01
   7.937  0.1709E+01  0.8746E+01
   7.947  0.1724E+01  0.8764E+01
   7.957  0.1739E+01  0.8781E+01
   7.967  0.1752E+01  0.8798E+01
   7.977  0.1765E+01  0.8816E+01
   7.987  0.1776E+01  0.8834E+01
   7.997  0.1787E+01  0.8851E+01
   8.007  0.1796E+01  0.8869E+01
   8.017  0.1805E+01  0.8887E+01
   8.027  0.1813E+01  0.8905E+01
   8.037  0.1819E+01  0.8924E+01
   8.047  0.1825E+01  0.8942E+01
   8.057  0.1830E+01  0.8960E+01
   8.067  0.1834E+01  0.8978E+01
   8.077  0.1837E+01  0.8997E+01
   8.087  0.1839E+01  0.9015E+01
   8.097  0.1840E+01  0.9034E+01
   8.107  0.1840E+01  0.9052E+01
   8.117  0.1839E+01  0.9070E+01
   8.127  0.1838E+01  0.9089E+01
   8.137  0.1835E+01  0.9107E+01
   8.147  0.1831E+01  0.9125E+01
   8.157  0.1827E+01  0.9144E+01
   8.167  0.1821E+01  0.9162E+01
   8.177  0.1815E+01  0.9180E+01
   8.187  0.1807E+01  0.9198E+01
   8.197  0.1801E+01  0.9216E+01
   8.207  0.1796E+01  0.9234E+01
   8.217  0.1790E+01  0.9252E+01
   8.227  0.1784E+01  0.9270E+01
   8.237  0.1776E+01  0.9288E+01
   8.247  0.1767E+01  0.9306E+01
   8.257  0.1757E+01  0.9323E+01
   8.267  0.1747E+01  0.9341E+01
   8.277  0.1735E+01  0.9358E+01
   8.287  0.1722E+01  0.9375E+01
   8.297  0.1708E+01  0.9393E+01
   8.307  0.1694E+01  0.9410E+01
   8.317  0.1678E+01  0.9426E+01
   8.327  0.1664E+01  0.9443E+01
   8.337  0.1650E+01  0.9460E+01
   8.347  0.1636E+01  0.9476E+01
   8.357  0.1622E+01  0.9492E+01
   8.367  0.1608E+01  0.9509E+01
   8.377  0.1594E+01  0.9525E+01
   8.387  0.1580E+01  0.9540E+01
   8.397  0.1566E+01  0.9556E+01
   8.407  0.1552E+01  0.9572E+01
   8.417  0.1538E+01  0.9587E+01
   8.427  0.1524E+01  0.9603E+01
   8.437  0.1510E+01  0.9618E+01
   8.447  0.1496E+01  0.9633E+01
   8.457  0.1482E+01  0.9648E+01
   8.467  0.1468E+01  0.9662E+01
   8.477  0.1454E+01  0.9677E+01
   8.487  0.1440E+01  0.9691E+01
   8.497  0.1427E+01  0.9706E+01
   8.507  0.1413E+01  0.9720E+01
   8.517  0.1400E+01  0.9734E+01
   8.527  0.1387E+01  0.9748E+01
   8.537  0.1375E+01  0.9762E+01
   8.547  0.1363E+01  0.9776E+01
   8.557  0.1351E+01  0.9789E+01
   8.567  0.1339E+01  0.9803E+01
   8.577  0.1328E+01  0.9816E+01
   8.587  0.1317E+01  0.9829E+01
   8.597  0.1348E+01  0.9842E+01
   8.607  0.1767E+01  0.9858E+01
   8.617  0.1789E+01  0.9876E+01
   8.627  0.1413E+01  0.9893E+01
   8.637  0.1283E+01  0.9906E+01
   8.647  0.1269E+01  0.9918E+01
   8.657  0.1255E+01  0.9931E+01
   8.667  0.1241E+01  0.9943E+01
   8.677  0.1227E+01  0.9956E+01
   8.687  0.1213E+01  0.9968E+01
   8.697  0.1199E+01  0.9980E+01
   8.707  0.1185E+01  0.9992E+01
   8.717  0.1171E+01  0.1000E+02
   8.727  0.1156E+01  0.1002E+02
   8.737  0.1141E+01  0.1003E+02
   8.747  0.1127E+01  0.1004E+02
   8.757  0.1112E+01  0.1005E+02
   8.767  0.1098E+01  0.1006E+02
   8.777  0.1084E+01  0.1007E+02
   8.787  0.1070E+01  0.1008E+02
   8.797  0.1057E+01  0.1009E+02
   8.807  0.1044E+01  0.1010E+02
   8.817  0.1031E+01  0.1011E+02
   8.827  0.1018E+01  0.1012E+02
   8.837  0.1006E+01  0.1013E+02
   8.847  0.9938E+00  0.1014E+02
   8.857  0.9820E+00  0.1015E+02
   8.867  0.9705E+00  0.1016E+02
   8.877  0.9593E+00  0.1017E+02
   8.887  0.9483E+00  0.1018E+02
   8.897  0.9389E+00  0.1019E+02
   8.907  0.9329E+00  0.1020E+02
   8.917  0.9271E+00  0.1021E+02
   8.927  0.9215E+00  0.1022E+02
   8.937  0.9162E+00  0.1023E+02
   8.947  0.9110E+00  0.1024E+02
   8.957  0.9060E+00  0.1025E+02
   8.967  0.9012E+00  0.1026E+02
   8.977  0.8967E+00  0.1027E+02
   8.987  0.8923E+00  0.1027E+02
   8.997  0.8882E+00  0.1028E+02
   9.007  0.8842E+00  0.1029E+02
   9.017  0.8805E+00  0.1030E+02
   9.027  0.8769E+00  0.1031E+02
   9.037  0.8736E+00  0.1032E+02
   9.047  0.8705E+00  0.1033E+02
   9.057  0.8675E+00  0.1034E+02
   9.067  0.8648E+00  0.1034E+02
   9.077  0.8623E+00  0.1035E+02
   9.087  0.8600E+00  0.1036E+02
   9.097  0.8579E+00  0.1037E+02
   9.107  0.8560E+00  0.1038E+02
   9.117  0.8543E+00  0.1039E+02
   9.127  0.8559E+00  0.1040E+02
   9.137  0.8583E+00  0.1040E+02
   9.147  0.8613E+00  0.1041E+02
   9.157  0.8649E+00  0.1042E+02
   9.167  0.8690E+00  0.1043E+02
   9.177  0.8737E+00  0.1044E+02
   9.187  0.8790E+00  0.1045E+02
   9.197  0.8848E+00  0.1046E+02
   9.207  0.8912E+00  0.1047E+02
   9.217  0.8981E+00  0.1047E+02
   9.227  0.9056E+00  0.1048E+02
   9.237  0.9137E+00  0.1049E+02
   9.247  0.9286E+00  0.1050E+02
   9.257  0.9483E+00  0.1051E+02
   9.267  0.9701E+00  0.1052E+02
   9.277  0.9938E+00  0.1053E+02
   9.287  0.1020E+01  0.1054E+02
   9.297  0.1047E+01  0.1055E+02
   9.307  0.1077E+01  0.1056E+02
   9.317  0.1109E+01  0.1057E+02
   9.327  0.1143E+01  0.1058E+02
   9.337  0.1179E+01  0.1060E+02
   9.347  0.1217E+01  0.1061E+02
   9.357  0.1257E+01  0.1062E+02
   9.367  0.1299E+01  0.1063E+02
   9.377  0.1343E+01  0.1065E+02
   9.387  0.1389E+01  0.1066E+02
   9.397  0.1437E+01  0.1067E+02
   9.407  0.1487E+01  0.1069E+02
   9.417  0.1539E+01  0.1070E+02
   9.427  0.1599E+01  0.1072E+02
   9.437  0.1661E+01  0.1074E+02
   9.447  0.1725E+01  0.1075E+02
   9.457  0.1790E+01  0.1077E+02
   9.467  0.1854E+01  0.1079E+02
   9.477  0.1915E+01  0.1081E+02
   9.487  0.1975E+01  0.1083E+02
   9.497  0.2032E+01  0.1085E+02
   9.507  0.2087E+01  0.1087E+02
   9.517  0.2140E+01  0.1089E+02
   9.527  0.2191E+01  0.1091E+02
   9.537  0.2240E+01  0.1093E+02
   9.547  0.2287E+01  0.1095E+02
   9.557  0.2332E+01  0.1098E+02
   9.567  0.2374E+01  0.1100E+02
   9.577  0.2415E+01  0.1103E+02
   9.587  0.2453E+01  0.1105E+02
   9.597  0.2483E+01  0.1107E+02
   9.607  0.2511E+01  0.1110E+02
   9.617  0.2538E+01  0.1112E+02
   9.627  0.2563E+01  0.1115E+02
   9.637  0.2587E+01  0.1118E+02
   9.647  0.2609E+01  0.1120E+02
   9.657  0.2629E+01  0.1123E+02
   9.667  0.2648E+01  0.1125E+02
   9.677  0.2665E+01  0.1128E+02
   9.687  0.2680E+01  0.1131E+02
   9.697  0.2694E+01  0.1133E+02
   9.707  0.2706E+01  0.1136E+02
   9.717  0.2717E+01  0.1139E+02
   9.727  0.2726E+01  0.1142E+02
   9.737  0.2733E+01  0.1144E+02
   9.747  0.2738E+01  0.1147E+02
   9.757  0.2742E+01  0.1150E+02
   9.767  0.2745E+01  0.1153E+02
   9.777  0.2745E+01  0.1155E+02
   9.787  0.2745E+01  0.1158E+02
   9.797  0.2742E+01  0.1161E+02
   9.807  0.2738E+01  0.1164E+02
   9.817  0.2732E+01  0.1166E+02
   9.827  0.2725E+01  0.1169E+02
   9.837  0.2716E+01  0.1172E+02
   9.847  0.2706E+01  0.1174E+02
   9.857  0.2694E+01  0.1177E+02
   9.867  0.2680E+01  0.1180E+02
   9.877  0.2665E+01  0.1182E+02
   9.887  0.2648E+01  0.1185E+02
   9.897  0.2630E+01  0.1188E+02
   9.907  0.2605E+01  0.1190E+02
   9.917  0.2535E+01  0.1193E+02
   9.927  0.2466E+01  0.1195E+02
   9.937  0.2398E+01  0.1198E+02
   9.947  0.2330E+01  0.1200E+02
   9.957  0.2264E+01  0.1203E+02
   9.967  0.2199E+01  0.1205E+02
   9.977  0.4561E+01  0.1208E+02
   9.987  0.1373E+01  0.1211E+02
   9.997  0.1352E+01  0.1212E+02
  10.007  0.1333E+01  0.1213E+02
  10.017  0.1316E+01  0.1215E+02
  10.027  0.1302E+01  0.1216E+02
  10.037  0.1289E+01  0.1217E+02
  10.047  0.1279E+01  0.1219E+02
  10.057  0.1271E+01  0.1220E+02
  10.067  0.1265E+01  0.1221E+02
  10.077  0.1261E+01  0.1222E+02
  10.087  0.1259E+01  0.1224E+02
  10.097  0.1346E+01  0.1225E+02
  10.107  0.1455E+01  0.1226E+02
  10.117  0.1557E+01  0.1228E+02
  10.127  0.1635E+01  0.1230E+02
  10.137  0.1646E+01  0.1231E+02
  10.147  0.1655E+01  0.1233E+02
  10.157  0.1660E+01  0.1234E+02
  10.167  0.1663E+01  0.1236E+02
  10.177  0.1663E+01  0.1238E+02
  10.187  0.1660E+01  0.1239E+02
  10.197  0.1654E+01  0.1241E+02
  10.207  0.1646E+01  0.1243E+02
  10.217  0.1634E+01  0.1244E+02
  10.227  0.1620E+01  0.1246E+02
  10.237  0.1603E+01  0.1248E+02
  10.247  0.1583E+01  0.1249E+02
  10.257  0.1559E+01  0.1251E+02
  10.267  0.1534E+01  0.1252E+02
  10.277  0.1508E+01  0.1254E+02
  10.287  0.1479E+01  0.1255E+02
  10.297  0.1448E+01  0.1257E+02
  10.307  0.1416E+01  0.1258E+02
  10.317  0.1382E+01  0.1260E+02
  10.327  0.1346E+01  0.1261E+02
  10.337  0.1308E+01  0.1262E+02
  10.347  0.1268E+01  0.1264E+02
  10.357  0.1227E+01  0.1265E+02
  10.367  0.1183E+01  0.1266E+02
  10.377  0.1138E+01  0.1267E+02
  10.387  0.1091E+01  0.1268E+02
  10.397  0.1042E+01  0.1269E+02
  10.407  0.1008E+01  0.1270E+02
  10.417  0.9830E+00  0.1271E+02
  10.427  0.9580E+00  0.1272E+02
  10.437  0.9333E+00  0.1273E+02
  10.447  0.9090E+00  0.1274E+02
  10.457  0.8852E+00  0.1275E+02
  10.467  0.8617E+00  0.1276E+02
  10.477  0.8387E+00  0.1277E+02
  10.487  0.8161E+00  0.1278E+02
  10.497  0.7938E+00  0.1279E+02
  10.507  0.7720E+00  0.1279E+02
  10.517  0.7506E+00  0.1280E+02
  10.527  0.7493E+00  0.1281E+02
  10.537  0.7486E+00  0.1282E+02
  10.547  0.7479E+00  0.1282E+02
  10.557  0.7472E+00  0.1283E+02
  10.567  0.7465E+00  0.1284E+02
  10.577  0.7459E+00  0.1285E+02
  10.587  0.7453E+00  0.1285E+02
  10.597  0.7447E+00  0.1286E+02
  10.607  0.7442E+00  0.1287E+02
  10.617  0.7437E+00  0.1288E+02
  10.627  0.7432E+00  0.1288E+02
  10.637  0.7428E+00  0.1289E+02
  10.647  0.7424E+00  0.1290E+02
  10.657  0.7420E+00  0.1291E+02
  10.667  0.7417E+00  0.1291E+02
  10.677  0.7414E+00  0.1292E+02
  10.687  0.7411E+00  0.1293E+02
  10.697  0.7409E+00  0.1293E+02
  10.707  0.7406E+00  0.1294E+02
  10.717  0.7405E+00  0.1295E+02
  10.727  0.7403E+00  0.1296E+02
  10.737  0.7402E+00  0.1296E+02
  10.747  0.7401E+00  0.1297E+02
  10.757  0.7401E+00  0.1298E+02
  10.767  0.7401E+00  0.1299E+02
  10.777  0.7401E+00  0.1299E+02
  10.787  0.7402E+00  0.1300E+02
  10.797  0.7403E+00  0.1301E+02
  10.807  0.7404E+00  0.1302E+02
  10.817  0.7405E+00  0.1302E+02
  10.827  0.7407E+00  0.1303E+02
  10.837  0.7409E+00  0.1304E+02
  10.847  0.7412E+00  0.1305E+02
  10.857  0.7415E+00  0.1305E+02
  10.867  0.7418E+00  0.1306E+02
  10.877  0.7421E+00  0.1307E+02
  10.887  0.7425E+00  0.1308E+02
  10.897  0.7429E+00  0.1308E+02
  10.907  0.7434E+00  0.1309E+02
  10.917  0.7438E+00  0.1310E+02
  10.927  0.7444E+00  0.1311E+02
  10.937  0.7449E+00  0.1311E+02
  10.947  0.7455E+00  0.1312E+02
  10.957  0.7461E+00  0.1313E+02
  10.967  0.7479E+00  0.1314E+02
  10.977  0.7516E+00  0.1314E+02
  10.987  0.7553E+00  0.1315E+02
  10.997  0.7591E+00  0.1316E+02
  11.007  0.7630E+00  0.1317E+02
  11.017  0.7669E+00  0.1317E+02
  11.027  0.7708E+00  0.1318E+02
  11.037  0.7748E+00  0.1319E+02
  11.047  0.7789E+00  0.1320E+02
  11.057  0.7830E+00  0.1320E+02
  11.067  0.7871E+00  0.1321E+02
  11.077  0.7913E+00  0.1322E+02
  11.087  0.7956E+00  0.1323E+02
  11.097  0.7999E+00  0.1324E+02
  11.107  0.8042E+00  0.1324E+02
  11.117  0.8086E+00  0.1325E+02
  11.127  0.8131E+00  0.1326E+02
  11.137  0.8176E+00  0.1327E+02
  11.147  0.8221E+00  0.1328E+02
  11.157  0.8267E+00  0.1328E+02
  11.167  0.8314E+00  0.1329E+02
  11.177  0.8361E+00  0.1330E+02
  11.187  0.8408E+00  0.1331E+02
  11.197  0.8456E+00  0.1332E+02
  11.207  0.8523E+00  0.1333E+02
  11.217  0.8595E+00  0.1333E+02
  11.227  0.8659E+00  0.1334E+02
  11.237  0.8715E+00  0.1335E+02
  11.247  0.8763E+00  0.1336E+02
  11.257  0.8802E+00  0.1337E+02
  11.267  0.8833E+00  0.1338E+02
  11.277  0.8856E+00  0.1339E+02
  11.287  0.8871E+00  0.1340E+02
  11.297  0.8877E+00  0.1341E+02
  11.307  0.8875E+00  0.1341E+02
  11.317  0.8865E+00  0.1342E+02
  11.327  0.8847E+00  0.1343E+02
  11.337  0.8821E+00  0.1344E+02
  11.347  0.8786E+00  0.1345E+02
  11.357  0.8743E+00  0.1346E+02
  11.367  0.8692E+00  0.1347E+02
  11.377  0.8633E+00  0.1348E+02
  11.387  0.8565E+00  0.1348E+02
  11.397  0.8489E+00  0.1349E+02
  11.407  0.8405E+00  0.1350E+02
  11.417  0.8313E+00  0.1351E+02
  11.427  0.8213E+00  0.1352E+02
  11.437  0.8104E+00  0.1353E+02
  11.447  0.7987E+00  0.1353E+02
  11.457  0.7862E+00  0.1354E+02
  11.467  0.7729E+00  0.1355E+02
  11.477  0.7733E+00  0.1356E+02
  11.487  0.7746E+00  0.1357E+02
  11.497  0.7759E+00  0.1357E+02
  11.507  0.7773E+00  0.1358E+02
  11.517  0.7788E+00  0.1359E+02
  11.527  0.7803E+00  0.1360E+02
  11.537  0.7818E+00  0.1360E+02
  11.547  0.7833E+00  0.1361E+02
  11.557  0.7849E+00  0.1362E+02
  11.567  0.7865E+00  0.1363E+02
  11.577  0.7882E+00  0.1364E+02
  11.587  0.7899E+00  0.1364E+02
  11.597  0.7916E+00  0.1365E+02
  11.607  0.7934E+00  0.1366E+02
  11.617  0.7952E+00  0.1367E+02
  11.627  0.7971E+00  0.1368E+02
  11.637  0.7990E+00  0.1368E+02
  11.647  0.8009E+00  0.1369E+02
  11.657  0.8029E+00  0.1370E+02
  11.667  0.8049E+00  0.1371E+02
  11.677  0.8069E+00  0.1372E+02
  11.687  0.8089E+00  0.1372E+02
  11.697  0.8110E+00  0.1373E+02
  11.707  0.8130E+00  0.1374E+02
  11.717  0.8151E+00  0.1375E+02
  11.727  0.8172E+00  0.1376E+02
  11.737  0.8193E+00  0.1376E+02
  11.747  0.8214E+00  0.1377E+02
  11.757  0.8235E+00  0.1378E+02
  11.767  0.8256E+00  0.1379E+02
  11.777  0.8278E+00  0.1380E+02
  11.787  0.8299E+00  0.1381E+02
  11.797  0.8321E+00  0.1381E+02
  11.807  0.8343E+00  0.1382E+02
  11.817  0.8364E+00  0.1383E+02
  11.827  0.8386E+00  0.1384E+02
  11.837  0.8408E+00  0.1385E+02
  11.847  0.8431E+00  0.1386E+02
  11.857  0.8453E+00  0.1386E+02
  11.867  0.8475E+00  0.1387E+02
  11.877  0.8498E+00  0.1388E+02
  11.887  0.8520E+00  0.1389E+02
  11.897  0.8543E+00  0.1390E+02
  11.907  0.8566E+00  0.1391E+02
  11.917  0.8589E+00  0.1391E+02
  11.927  0.8612E+00  0.1392E+02
  11.937  0.8635E+00  0.1393E+02
  11.947  0.8659E+00  0.1394E+02
  11.957  0.8689E+00  0.1395E+02
  11.967  0.8722E+00  0.1396E+02
  11.977  0.8755E+00  0.1397E+02
  11.987  0.8787E+00  0.1398E+02
  11.997  0.8818E+00  0.1398E+02
  12.007  0.8848E+00  0.1399E+02
  12.017  0.8878E+00  0.1400E+02
  12.027  0.8907E+00  0.1401E+02
  12.037  0.8935E+00  0.1402E+02
  12.047  0.8962E+00  0.1403E+02
  12.057  0.8989E+00  0.1404E+02
  12.067  0.9015E+00  0.1405E+02
  12.077  0.9041E+00  0.1406E+02
  12.087  0.9065E+00  0.1406E+02
  12.097  0.9089E+00  0.1407E+02
  12.107  0.9113E+00  0.1408E+02
  12.117  0.9135E+00  0.1409E+02
  12.127  0.9157E+00  0.1410E+02
  12.137  0.9179E+00  0.1411E+02
  12.147  0.9199E+00  0.1412E+02
  12.157  0.9219E+00  0.1413E+02
  12.167  0.9238E+00  0.1414E+02
  12.177  0.9257E+00  0.1415E+02
  12.187  0.9274E+00  0.1416E+02
  12.197  0.9291E+00  0.1417E+02
  12.207  0.9308E+00  0.1418E+02
  12.217  0.9323E+00  0.1418E+02
  12.227  0.9338E+00  0.1419E+02
  12.237  0.9352E+00  0.1420E+02
  12.247  0.9366E+00  0.1421E+02
  12.257  0.9397E+00  0.1422E+02
  12.267  0.1000E+01  0.1423E+02
  12.277  0.1059E+01  0.1424E+02
  12.287  0.1115E+01  0.1425E+02
  12.297  0.1170E+01  0.1426E+02
  12.307  0.1223E+01  0.1428E+02
  12.317  0.1274E+01  0.1429E+02
  12.327  0.1324E+01  0.1430E+02
  12.337  0.1371E+01  0.1432E+02
  12.347  0.1412E+01  0.1433E+02
  12.357  0.1440E+01  0.1434E+02
  12.367  0.1468E+01  0.1436E+02
  12.377  0.1495E+01  0.1437E+02
  12.387  0.1522E+01  0.1439E+02
  12.397  0.1549E+01  0.1440E+02
  12.407  0.1575E+01  0.1442E+02
  12.417  0.1601E+01  0.1443E+02
  12.427  0.1626E+01  0.1445E+02
  12.437  0.1651E+01  0.1447E+02
  12.447  0.1675E+01  0.1448E+02
  12.457  0.1699E+01  0.1450E+02
  12.467  0.1723E+01  0.1452E+02
  12.477  0.1746E+01  0.1454E+02
  12.487  0.1769E+01  0.1455E+02
  12.497  0.1792E+01  0.1457E+02
  12.507  0.1814E+01  0.1459E+02
  12.517  0.1835E+01  0.1461E+02
  12.527  0.1856E+01  0.1463E+02
  12.537  0.1877E+01  0.1464E+02
  12.547  0.1897E+01  0.1466E+02
  12.557  0.1917E+01  0.1468E+02
  12.567  0.1937E+01  0.1470E+02
  12.577  0.1956E+01  0.1472E+02
  12.587  0.1974E+01  0.1474E+02
  12.597  0.1991E+01  0.1476E+02
  12.607  0.2000E+01  0.1478E+02
  12.617  0.2008E+01  0.1480E+02
  12.627  0.2015E+01  0.1482E+02
  12.637  0.2022E+01  0.1484E+02
  12.647  0.2027E+01  0.1486E+02
  12.657  0.2032E+01  0.1488E+02
  12.667  0.2036E+01  0.1490E+02
  12.677  0.2039E+01  0.1492E+02
  12.687  0.2041E+01  0.1494E+02
  12.697  0.2042E+01  0.1496E+02
  12.707  0.2042E+01  0.1498E+02
  12.717  0.2042E+01  0.1500E+02
  12.727  0.2040E+01  0.1502E+02
  12.737  0.2038E+01  0.1504E+02
  12.747  0.2035E+01  0.1506E+02
  12.757  0.2031E+01  0.1508E+02
  12.767  0.2026E+01  0.1511E+02
  12.777  0.2020E+01  0.1513E+02
  12.787  0.2014E+01  0.1515E+02
  12.797  0.2006E+01  0.1517E+02
  12.807  0.1998E+01  0.1519E+02
  12.817  0.1989E+01  0.1521E+02
  12.827  0.1979E+01  0.1523E+02
  12.837  0.1968E+01  0.1525E+02
  12.847  0.1956E+01  0.1526E+02
  12.857  0.1944E+01  0.1528E+02
  12.867  0.1930E+01  0.1530E+02
  12.877  0.1916E+01  0.1532E+02
  12.887  0.1901E+01  0.1534E+02
  12.897  0.1886E+01  0.1536E+02
  12.907  0.1872E+01  0.1538E+02
  12.917  0.1857E+01  0.1540E+02
  12.927  0.1838E+01  0.1542E+02
  12.937  0.1817E+01  0.1544E+02
  12.947  0.1795E+01  0.1545E+02
  12.957  0.1770E+01  0.1547E+02
  12.967  0.1744E+01  0.1549E+02
  12.977  0.1717E+01  0.1551E+02
  12.987  0.1687E+01  0.1552E+02
  12.997  0.1656E+01  0.1554E+02
  13.007  0.1623E+01  0.1556E+02
  13.017  0.1589E+01  0.1557E+02
  13.027  0.1553E+01  0.1559E+02
  13.037  0.1515E+01  0.1560E+02
  13.047  0.1475E+01  0.1562E+02
  13.057  0.1434E+01  0.1563E+02
  13.067  0.1391E+01  0.1565E+02
  13.077  0.1346E+01  0.1566E+02
  13.087  0.1306E+01  0.1567E+02
  13.097  0.1266E+01  0.1569E+02
  13.107  0.1223E+01  0.1570E+02
  13.117  0.1180E+01  0.1571E+02
  13.127  0.1135E+01  0.1572E+02
  13.137  0.1090E+01  0.1573E+02
  13.147  0.1045E+01  0.1574E+02
  13.157  0.9991E+00  0.1575E+02
  13.167  0.9529E+00  0.1576E+02
  13.177  0.9063E+00  0.1577E+02
  13.187  0.8593E+00  0.1578E+02
  13.197  0.8119E+00  0.1579E+02
  13.207  0.7640E+00  0.1580E+02
  13.217  0.7157E+00  0.1581E+02
  13.227  0.6670E+00  0.1581E+02
  13.237  0.6178E+00  0.1582E+02
  13.247  0.5683E+00  0.1583E+02
  13.257  0.5183E+00  0.1583E+02
  13.267  0.4679E+00  0.1584E+02
  13.277  0.4171E+00  0.1584E+02
  13.287  0.3666E+00  0.1584E+02
  13.297  0.3302E+00  0.1585E+02
  13.307  0.3047E+00  0.1585E+02
  13.317  0.2954E+00  0.1585E+02
  13.327  0.2861E+00  0.1586E+02
  13.337  0.2771E+00  0.1586E+02
  13.347  0.2682E+00  0.1586E+02
  13.357  0.2595E+00  0.1586E+02
  13.367  0.2509E+00  0.1587E+02
  13.377  0.2425E+00  0.1587E+02
  13.387  0.2343E+00  0.1587E+02
  13.397  0.2262E+00  0.1587E+02
  13.407  0.2183E+00  0.1588E+02
  13.417  0.2106E+00  0.1588E+02
  13.427  0.2030E+00  0.1588E+02
  13.437  0.1957E+00  0.1588E+02
  13.447  0.1884E+00  0.1588E+02
  13.457  0.1814E+00  0.1589E+02
  13.467  0.1746E+00  0.1589E+02
  13.477  0.1683E+00  0.1589E+02
  13.487  0.1623E+00  0.1589E+02
  13.497  0.1568E+00  0.1589E+02
  13.507  0.1516E+00  0.1589E+02
  13.517  0.1469E+00  0.1590E+02
  13.527  0.1426E+00  0.1590E+02
  13.537  0.1387E+00  0.1590E+02
  13.547  0.1352E+00  0.1590E+02
  13.557  0.1320E+00  0.1590E+02
  13.567  0.1293E+00  0.1590E+02
  13.577  0.1270E+00  0.1590E+02
  13.587  0.1251E+00  0.1591E+02
  13.597  0.1237E+00  0.1591E+02
  13.607  0.1225E+00  0.1591E+02
  13.617  0.1214E+00  0.1591E+02
  13.627  0.1203E+00  0.1591E+02
  13.637  0.1193E+00  0.1591E+02
  13.647  0.1182E+00  0.1591E+02
  13.657  0.1171E+00  0.1591E+02
  13.667  0.1161E+00  0.1592E+02
  13.677  0.1150E+00  0.1592E+02
  13.687  0.1139E+00  0.1592E+02
  13.697  0.1129E+00  0.1592E+02
  13.707  0.1118E+00  0.1592E+02
  13.717  0.1108E+00  0.1592E+02
  13.727  0.1098E+00  0.1592E+02
  13.737  0.1087E+00  0.1592E+02
  13.747  0.1077E+00  0.1592E+02
  13.757  0.1067E+00  0.1593E+02
  13.767  0.1057E+00  0.1593E+02
  13.777  0.1047E+00  0.1593E+02
  13.787  0.1036E+00  0.1593E+02
  13.797  0.1026E+00  0.1593E+02
  13.807  0.1016E+00  0.1593E+02
  13.817  0.1007E+00  0.1593E+02
  13.827  0.9967E-01  0.1593E+02
  13.837  0.9869E-01  0.1593E+02
  13.847  0.9771E-01  0.1593E+02
  13.857  0.9674E-01  0.1594E+02
  13.867  0.9577E-01  0.1594E+02
  13.877  0.9480E-01  0.1594E+02
  13.887  0.9385E-01  0.1594E+02
  13.897  0.9289E-01  0.1594E+02
  13.907  0.9194E-01  0.1594E+02
  13.917  0.9100E-01  0.1594E+02
  13.927  0.9006E-01  0.1594E+02
  13.937  0.8913E-01  0.1594E+02
  13.947  0.8820E-01  0.1594E+02
  13.957  0.8727E-01  0.1594E+02
  13.967  0.8636E-01  0.1595E+02
  13.977  0.8544E-01  0.1595E+02
  13.987  0.8453E-01  0.1595E+02
  13.997  0.8363E-01  0.1595E+02
  14.007  0.8273E-01  0.1595E+02
  14.017  0.8183E-01  0.1595E+02
  14.027  0.8094E-01  0.1595E+02
  14.037  0.8006E-01  0.1595E+02
  14.047  0.7918E-01  0.1595E+02
  14.057  0.7830E-01  0.1595E+02
  14.067  0.7743E-01  0.1595E+02
  14.077  0.7656E-01  0.1595E+02
  14.087  0.7570E-01  0.1596E+02
  14.097  0.7485E-01  0.1596E+02
  14.107  0.7400E-01  0.1596E+02
  14.117  0.7315E-01  0.1596E+02
  14.127  0.7231E-01  0.1596E+02
  14.137  0.7147E-01  0.1596E+02
  14.147  0.7064E-01  0.1596E+02
  14.157  0.6981E-01  0.1596E+02
  14.167  0.6899E-01  0.1596E+02
  14.177  0.6817E-01  0.1596E+02
  14.187  0.6736E-01  0.1596E+02
  14.197  0.6655E-01  0.1596E+02
  14.207  0.6575E-01  0.1596E+02
  14.217  0.6495E-01  0.1596E+02
  14.227  0.6416E-01  0.1597E+02
  14.237  0.6337E-01  0.1597E+02
  14.247  0.6259E-01  0.1597E+02
  14.257  0.6181E-01  0.1597E+02
  14.267  0.6104E-01  0.1597E+02
  14.277  0.6027E-01  0.1597E+02
  14.287  0.5951E-01  0.1597E+02
  14.297  0.5875E-01  0.1597E+02
  14.307  0.5799E-01  0.1597E+02
  14.317  0.5724E-01  0.1597E+02
  14.327  0.5650E-01  0.1597E+02
  14.337  0.5576E-01  0.1597E+02
  14.347  0.5503E-01  0.1597E+02
  14.357  0.5430E-01  0.1597E+02
  14.367  0.5357E-01  0.1597E+02
  14.377  0.5285E-01  0.1597E+02
  14.387  0.5214E-01  0.1597E+02
  14.397  0.5143E-01  0.1598E+02
  14.407  0.5072E-01  0.1598E+02
  14.417  0.5002E-01  0.1598E+02
  14.427  0.4933E-01  0.1598E+02
  14.437  0.4864E-01  0.1598E+02
  14.447  0.4795E-01  0.1598E+02
  14.457  0.4727E-01  0.1598E+02
  14.467  0.4659E-01  0.1598E+02
  14.477  0.4592E-01  0.1598E+02
  14.487  0.4526E-01  0.1598E+02
  14.497  0.4460E-01  0.1598E+02
  14.507  0.4394E-01  0.1598E+02
  14.517  0.4329E-01  0.1598E+02
  14.527  0.4264E-01  0.1598E+02
  14.537  0.4200E-01  0.1598E+02
  14.547  0.4136E-01  0.1598E+02
  14.557  0.4073E-01  0.1598E+02
  14.567  0.4010E-01  0.1598E+02
  14.577  0.3948E-01  0.1598E+02
  14.587  0.3886E-01  0.1598E+02
  14.597  0.3825E-01  0.1598E+02
  14.607  0.3764E-01  0.1598E+02
  14.617  0.3704E-01  0.1598E+02
  14.627  0.3644E-01  0.1599E+02
  14.637  0.3585E-01  0.1599E+02
  14.647  0.3526E-01  0.1599E+02
  14.657  0.3468E-01  0.1599E+02
  14.667  0.3410E-01  0.1599E+02
  14.677  0.3352E-01  0.1599E+02
  14.687  0.3295E-01  0.1599E+02
  14.697  0.3239E-01  0.1599E+02
  14.707  0.3183E-01  0.1599E+02
  14.717  0.3128E-01  0.1599E+02
  14.727  0.3073E-01  0.1599E+02
  14.737  0.3018E-01  0.1599E+02
  14.747  0.2964E-01  0.1599E+02
  14.757  0.2911E-01  0.1599E+02
  14.767  0.2858E-01  0.1599E+02
  14.777  0.2805E-01  0.1599E+02
  14.787  0.2753E-01  0.1599E+02
  14.797  0.2702E-01  0.1599E+02
  14.807  0.2651E-01  0.1599E+02
  14.817  0.2600E-01  0.1599E+02
  14.827  0.2550E-01  0.1599E+02
  14.837  0.2501E-01  0.1599E+02
  14.847  0.2451E-01  0.1599E+02
  14.857  0.2403E-01  0.1599E+02
  14.867  0.2355E-01  0.1599E+02
  14.877  0.2307E-01  0.1599E+02
  14.887  0.2260E-01  0.1599E+02
  14.897  0.2213E-01  0.1599E+02
  14.907  0.2167E-01  0.1599E+02
  14.917  0.2121E-01  0.1599E+02
  14.927  0.2076E-01  0.1599E+02
  14.937  0.2032E-01  0.1599E+02
  14.947  0.1987E-01  0.1599E+02
  14.957  0.1944E-01  0.1599E+02
  14.967  0.1900E-01  0.1599E+02
  14.977  0.1858E-01  0.1599E+02
  14.987  0.1815E-01  0.1599E+02
  14.997  0.1773E-01  0.1599E+02
  15.007  0.1732E-01  0.1600E+02
  15.017  0.1691E-01  0.1600E+02
  15.027  0.1651E-01  0.1600E+02
  15.037  0.1611E-01  0.1600E+02
  15.047  0.1572E-01  0.1600E+02
  15.057  0.1533E-01  0.1600E+02
  15.067  0.1494E-01  0.1600E+02
  15.077  0.1457E-01  0.1600E+02
  15.087  0.1419E-01  0.1600E+02
  15.097  0.1382E-01  0.1600E+02
  15.107  0.1346E-01  0.1600E+02
  15.117  0.1310E-01  0.1600E+02
  15.127  0.1274E-01  0.1600E+02
  15.137  0.1239E-01  0.1600E+02
  15.147  0.1205E-01  0.1600E+02
  15.157  0.1171E-01  0.1600E+02
  15.167  0.1137E-01  0.1600E+02
  15.177  0.1104E-01  0.1600E+02
  15.187  0.1072E-01  0.1600E+02
  15.197  0.1040E-01  0.1600E+02
  15.207  0.1008E-01  0.1600E+02
  15.217  0.9771E-02  0.1600E+02
  15.227  0.9465E-02  0.1600E+02
  15.237  0.9164E-02  0.1600E+02
  15.247  0.8867E-02  0.1600E+02
  15.257  0.8576E-02  0.1600E+02
  15.267  0.8290E-02  0.1600E+02
  15.277  0.8008E-02  0.1600E+02
  15.287  0.7731E-02  0.1600E+02
  15.297  0.7459E-02  0.1600E+02
  15.307  0.7192E-02  0.1600E+02
  15.317  0.6930E-02  0.1600E+02
  15.327  0.6673E-02  0.1600E+02
  15.337  0.6420E-02  0.1600E+02
  15.347  0.6173E-02  0.1600E+02
  15.357  0.5930E-02  0.1600E+02
  15.367  0.5692E-02  0.1600E+02
  15.377  0.5459E-02  0.1600E+02
  15.387  0.5231E-02  0.1600E+02
  15.397  0.5008E-02  0.1600E+02
  15.407  0.4789E-02  0.1600E+02
  15.417  0.4576E-02  0.1600E+02
  15.427  0.4367E-02  0.1600E+02
  15.437  0.4163E-02  0.1600E+02
  15.447  0.3965E-02  0.1600E+02
  15.457  0.3771E-02  0.1600E+02
  15.467  0.3581E-02  0.1600E+02
  15.477  0.3397E-02  0.1600E+02
  15.487  0.3218E-02  0.1600E+02
  15.497  0.3043E-02  0.1600E+02
  15.507  0.2873E-02  0.1600E+02
  15.517  0.2709E-02  0.1600E+02
  15.527  0.2549E-02  0.1600E+02
  15.537  0.2394E-02  0.1600E+02
  15.547  0.2243E-02  0.1600E+02
  15.557  0.2098E-02  0.1600E+02
  15.567  0.1957E-02  0.1600E+02
  15.577  0.1822E-02  0.1600E+02
  15.587  0.1691E-02  0.1600E+02
  15.597  0.1565E-02  0.1600E+02
  15.607  0.1444E-02  0.1600E+02
  15.617  0.1328E-02  0.1600E+02
  15.627  0.1217E-02  0.1600E+02
  15.637  0.1110E-02  0.1600E+02
  15.647  0.1009E-02  0.1600E+02
  15.657  0.9122E-03  0.1600E+02
  15.667  0.8204E-03  0.1600E+02
  15.677  0.7334E-03  0.1600E+02
  15.687  0.6514E-03  0.1600E+02
  15.697  0.5742E-03  0.1600E+02
  15.707  0.5018E-03  0.1600E+02
  15.717  0.4344E-03  0.1600E+02
  15.727  0.3718E-03  0.1600E+02
  15.737  0.3140E-03  0.1600E+02
  15.747  0.2612E-03  0.1600E+02
  15.757  0.2132E-03  0.1600E+02
  15.767  0.1701E-03  0.1600E+02
  15.777  0.1318E-03  0.1600E+02
  15.787  0.9841E-04  0.1600E+02
  15.797  0.6989E-04  0.1600E+02
  15.807  0.4624E-04  0.1600E+02
  15.817  0.2746E-04  0.1600E+02
  15.827  0.1354E-04  0.1600E+02
  15.837  0.4493E-05  0.1600E+02
  15.847  0.3131E-06  0.1600E+02
