# E (eV)   ldos(E)   pdos(E)   
  -6.281  0.236E-05  0.236E-05
  -6.271  0.365E-05  0.365E-05
  -6.261  0.558E-05  0.558E-05
  -6.251  0.845E-05  0.845E-05
  -6.241  0.126E-04  0.126E-04
  -6.231  0.187E-04  0.187E-04
  -6.221  0.274E-04  0.274E-04
  -6.211  0.397E-04  0.397E-04
  -6.201  0.569E-04  0.569E-04
  -6.191  0.807E-04  0.807E-04
  -6.181  0.113E-03  0.113E-03
  -6.171  0.157E-03  0.157E-03
  -6.161  0.216E-03  0.216E-03
  -6.151  0.293E-03  0.293E-03
  -6.141  0.393E-03  0.393E-03
  -6.131  0.523E-03  0.523E-03
  -6.121  0.687E-03  0.687E-03
  -6.111  0.893E-03  0.893E-03
  -6.101  0.115E-02  0.115E-02
  -6.091  0.146E-02  0.146E-02
  -6.081  0.184E-02  0.184E-02
  -6.071  0.229E-02  0.229E-02
  -6.061  0.283E-02  0.283E-02
  -6.051  0.344E-02  0.344E-02
  -6.041  0.415E-02  0.415E-02
  -6.031  0.495E-02  0.495E-02
  -6.021  0.584E-02  0.584E-02
  -6.011  0.682E-02  0.682E-02
  -6.001  0.788E-02  0.788E-02
  -5.991  0.900E-02  0.900E-02
  -5.981  0.102E-01  0.102E-01
  -5.971  0.114E-01  0.114E-01
  -5.961  0.126E-01  0.126E-01
  -5.951  0.138E-01  0.138E-01
  -5.941  0.149E-01  0.149E-01
  -5.931  0.160E-01  0.160E-01
  -5.921  0.169E-01  0.169E-01
  -5.911  0.177E-01  0.177E-01
  -5.901  0.184E-01  0.184E-01
  -5.891  0.189E-01  0.189E-01
  -5.881  0.192E-01  0.192E-01
  -5.871  0.193E-01  0.193E-01
  -5.861  0.192E-01  0.192E-01
  -5.851  0.190E-01  0.190E-01
  -5.841  0.186E-01  0.186E-01
  -5.831  0.180E-01  0.180E-01
  -5.821  0.174E-01  0.174E-01
  -5.811  0.168E-01  0.168E-01
  -5.801  0.162E-01  0.162E-01
  -5.791  0.156E-01  0.156E-01
  -5.781  0.152E-01  0.152E-01
  -5.771  0.150E-01  0.150E-01
  -5.761  0.150E-01  0.150E-01
  -5.751  0.154E-01  0.154E-01
  -5.741  0.163E-01  0.163E-01
  -5.731  0.176E-01  0.176E-01
  -5.721  0.196E-01  0.196E-01
  -5.711  0.221E-01  0.221E-01
  -5.701  0.254E-01  0.254E-01
  -5.691  0.294E-01  0.294E-01
  -5.681  0.343E-01  0.343E-01
  -5.671  0.399E-01  0.399E-01
  -5.661  0.464E-01  0.464E-01
  -5.651  0.536E-01  0.536E-01
  -5.641  0.616E-01  0.616E-01
  -5.631  0.703E-01  0.703E-01
  -5.621  0.795E-01  0.795E-01
  -5.611  0.892E-01  0.892E-01
  -5.601  0.993E-01  0.993E-01
  -5.591  0.110E+00  0.110E+00
  -5.581  0.120E+00  0.120E+00
  -5.571  0.130E+00  0.130E+00
  -5.561  0.140E+00  0.140E+00
  -5.551  0.149E+00  0.149E+00
  -5.541  0.157E+00  0.157E+00
  -5.531  0.165E+00  0.165E+00
  -5.521  0.171E+00  0.171E+00
  -5.511  0.177E+00  0.177E+00
  -5.501  0.181E+00  0.181E+00
  -5.491  0.184E+00  0.184E+00
  -5.481  0.186E+00  0.186E+00
  -5.471  0.186E+00  0.186E+00
  -5.461  0.186E+00  0.186E+00
  -5.451  0.184E+00  0.184E+00
  -5.441  0.180E+00  0.180E+00
  -5.431  0.176E+00  0.176E+00
  -5.421  0.171E+00  0.171E+00
  -5.411  0.165E+00  0.165E+00
  -5.401  0.158E+00  0.158E+00
  -5.391  0.150E+00  0.150E+00
  -5.381  0.142E+00  0.142E+00
  -5.371  0.133E+00  0.133E+00
  -5.361  0.124E+00  0.124E+00
  -5.351  0.114E+00  0.114E+00
  -5.341  0.105E+00  0.105E+00
  -5.331  0.956E-01  0.956E-01
  -5.321  0.864E-01  0.864E-01
  -5.311  0.775E-01  0.775E-01
  -5.301  0.689E-01  0.689E-01
  -5.291  0.608E-01  0.608E-01
  -5.281  0.532E-01  0.532E-01
  -5.271  0.462E-01  0.462E-01
  -5.261  0.399E-01  0.399E-01
  -5.251  0.342E-01  0.342E-01
  -5.241  0.293E-01  0.293E-01
  -5.231  0.250E-01  0.250E-01
  -5.221  0.215E-01  0.215E-01
  -5.211  0.188E-01  0.188E-01
  -5.201  0.167E-01  0.167E-01
  -5.191  0.155E-01  0.155E-01
  -5.181  0.149E-01  0.149E-01
  -5.171  0.152E-01  0.152E-01
  -5.161  0.162E-01  0.162E-01
  -5.151  0.181E-01  0.181E-01
  -5.141  0.208E-01  0.208E-01
  -5.131  0.244E-01  0.244E-01
  -5.121  0.289E-01  0.289E-01
  -5.111  0.343E-01  0.343E-01
  -5.101  0.407E-01  0.407E-01
  -5.091  0.479E-01  0.479E-01
  -5.081  0.560E-01  0.560E-01
  -5.071  0.649E-01  0.649E-01
  -5.061  0.745E-01  0.745E-01
  -5.051  0.847E-01  0.847E-01
  -5.041  0.952E-01  0.952E-01
  -5.031  0.106E+00  0.106E+00
  -5.021  0.117E+00  0.117E+00
  -5.011  0.127E+00  0.127E+00
  -5.001  0.137E+00  0.137E+00
  -4.991  0.146E+00  0.146E+00
  -4.981  0.154E+00  0.154E+00
  -4.971  0.161E+00  0.161E+00
  -4.961  0.166E+00  0.166E+00
  -4.951  0.170E+00  0.170E+00
  -4.941  0.172E+00  0.172E+00
  -4.931  0.172E+00  0.172E+00
  -4.921  0.170E+00  0.170E+00
  -4.911  0.167E+00  0.167E+00
  -4.901  0.162E+00  0.162E+00
  -4.891  0.156E+00  0.156E+00
  -4.881  0.149E+00  0.149E+00
  -4.871  0.141E+00  0.141E+00
  -4.861  0.133E+00  0.133E+00
  -4.851  0.124E+00  0.124E+00
  -4.841  0.116E+00  0.116E+00
  -4.831  0.109E+00  0.109E+00
  -4.821  0.103E+00  0.103E+00
  -4.811  0.983E-01  0.983E-01
  -4.801  0.953E-01  0.953E-01
  -4.791  0.943E-01  0.943E-01
  -4.781  0.955E-01  0.955E-01
  -4.771  0.992E-01  0.992E-01
  -4.761  0.105E+00  0.105E+00
  -4.751  0.114E+00  0.114E+00
  -4.741  0.126E+00  0.126E+00
  -4.731  0.140E+00  0.140E+00
  -4.721  0.156E+00  0.156E+00
  -4.711  0.175E+00  0.175E+00
  -4.701  0.196E+00  0.196E+00
  -4.691  0.218E+00  0.218E+00
  -4.681  0.241E+00  0.241E+00
  -4.671  0.265E+00  0.265E+00
  -4.661  0.288E+00  0.288E+00
  -4.651  0.312E+00  0.312E+00
  -4.641  0.334E+00  0.334E+00
  -4.631  0.354E+00  0.354E+00
  -4.621  0.372E+00  0.372E+00
  -4.611  0.387E+00  0.387E+00
  -4.601  0.399E+00  0.399E+00
  -4.591  0.407E+00  0.407E+00
  -4.581  0.412E+00  0.412E+00
  -4.571  0.413E+00  0.413E+00
  -4.561  0.409E+00  0.409E+00
  -4.551  0.402E+00  0.402E+00
  -4.541  0.392E+00  0.392E+00
  -4.531  0.378E+00  0.378E+00
  -4.521  0.361E+00  0.361E+00
  -4.511  0.341E+00  0.341E+00
  -4.501  0.320E+00  0.320E+00
  -4.491  0.297E+00  0.297E+00
  -4.481  0.274E+00  0.274E+00
  -4.471  0.250E+00  0.250E+00
  -4.461  0.226E+00  0.226E+00
  -4.451  0.202E+00  0.202E+00
  -4.441  0.179E+00  0.179E+00
  -4.431  0.158E+00  0.158E+00
  -4.421  0.137E+00  0.137E+00
  -4.411  0.119E+00  0.119E+00
  -4.401  0.101E+00  0.101E+00
  -4.391  0.861E-01  0.861E-01
  -4.381  0.723E-01  0.723E-01
  -4.371  0.602E-01  0.602E-01
  -4.361  0.497E-01  0.497E-01
  -4.351  0.406E-01  0.406E-01
  -4.341  0.330E-01  0.330E-01
  -4.331  0.265E-01  0.265E-01
  -4.321  0.212E-01  0.212E-01
  -4.311  0.168E-01  0.168E-01
  -4.301  0.133E-01  0.133E-01
  -4.291  0.106E-01  0.106E-01
  -4.281  0.851E-02  0.851E-02
  -4.271  0.698E-02  0.698E-02
  -4.261  0.596E-02  0.596E-02
  -4.251  0.538E-02  0.538E-02
  -4.241  0.520E-02  0.520E-02
  -4.231  0.540E-02  0.540E-02
  -4.221  0.596E-02  0.596E-02
  -4.211  0.689E-02  0.689E-02
  -4.201  0.817E-02  0.817E-02
  -4.191  0.982E-02  0.982E-02
  -4.181  0.119E-01  0.119E-01
  -4.171  0.143E-01  0.143E-01
  -4.161  0.171E-01  0.171E-01
  -4.151  0.204E-01  0.204E-01
  -4.141  0.240E-01  0.240E-01
  -4.131  0.281E-01  0.281E-01
  -4.121  0.326E-01  0.326E-01
  -4.111  0.374E-01  0.374E-01
  -4.101  0.426E-01  0.426E-01
  -4.091  0.480E-01  0.480E-01
  -4.081  0.537E-01  0.537E-01
  -4.071  0.597E-01  0.597E-01
  -4.061  0.659E-01  0.659E-01
  -4.051  0.722E-01  0.722E-01
  -4.041  0.787E-01  0.787E-01
  -4.031  0.854E-01  0.854E-01
  -4.021  0.924E-01  0.924E-01
  -4.011  0.996E-01  0.996E-01
  -4.001  0.107E+00  0.107E+00
  -3.991  0.115E+00  0.115E+00
  -3.981  0.124E+00  0.124E+00
  -3.971  0.133E+00  0.133E+00
  -3.961  0.144E+00  0.144E+00
  -3.951  0.155E+00  0.155E+00
  -3.941  0.167E+00  0.167E+00
  -3.931  0.180E+00  0.180E+00
  -3.921  0.195E+00  0.195E+00
  -3.911  0.210E+00  0.210E+00
  -3.901  0.226E+00  0.226E+00
  -3.891  0.243E+00  0.243E+00
  -3.881  0.260E+00  0.260E+00
  -3.871  0.278E+00  0.278E+00
  -3.861  0.295E+00  0.295E+00
  -3.851  0.312E+00  0.312E+00
  -3.841  0.328E+00  0.328E+00
  -3.831  0.343E+00  0.343E+00
  -3.821  0.357E+00  0.357E+00
  -3.811  0.369E+00  0.369E+00
  -3.801  0.380E+00  0.380E+00
  -3.791  0.389E+00  0.389E+00
  -3.781  0.397E+00  0.397E+00
  -3.771  0.403E+00  0.403E+00
  -3.761  0.408E+00  0.408E+00
  -3.751  0.412E+00  0.412E+00
  -3.741  0.416E+00  0.416E+00
  -3.731  0.419E+00  0.419E+00
  -3.721  0.422E+00  0.422E+00
  -3.711  0.425E+00  0.425E+00
  -3.701  0.428E+00  0.428E+00
  -3.691  0.431E+00  0.431E+00
  -3.681  0.434E+00  0.434E+00
  -3.671  0.437E+00  0.437E+00
  -3.661  0.440E+00  0.440E+00
  -3.651  0.443E+00  0.443E+00
  -3.641  0.446E+00  0.446E+00
  -3.631  0.447E+00  0.447E+00
  -3.621  0.448E+00  0.448E+00
  -3.611  0.448E+00  0.448E+00
  -3.601  0.448E+00  0.448E+00
  -3.591  0.446E+00  0.446E+00
  -3.581  0.444E+00  0.444E+00
  -3.571  0.441E+00  0.441E+00
  -3.561  0.438E+00  0.438E+00
  -3.551  0.435E+00  0.435E+00
  -3.541  0.431E+00  0.431E+00
  -3.531  0.428E+00  0.428E+00
  -3.521  0.425E+00  0.425E+00
  -3.511  0.422E+00  0.422E+00
  -3.501  0.419E+00  0.419E+00
  -3.491  0.417E+00  0.417E+00
  -3.481  0.414E+00  0.414E+00
  -3.471  0.412E+00  0.412E+00
  -3.461  0.408E+00  0.408E+00
  -3.451  0.404E+00  0.404E+00
  -3.441  0.399E+00  0.399E+00
  -3.431  0.392E+00  0.392E+00
  -3.421  0.384E+00  0.384E+00
  -3.411  0.373E+00  0.373E+00
  -3.401  0.361E+00  0.361E+00
  -3.391  0.346E+00  0.346E+00
  -3.381  0.330E+00  0.330E+00
  -3.371  0.312E+00  0.312E+00
  -3.361  0.292E+00  0.292E+00
  -3.351  0.271E+00  0.271E+00
  -3.341  0.250E+00  0.250E+00
  -3.331  0.228E+00  0.228E+00
  -3.321  0.205E+00  0.205E+00
  -3.311  0.184E+00  0.184E+00
  -3.301  0.162E+00  0.162E+00
  -3.291  0.142E+00  0.142E+00
  -3.281  0.123E+00  0.123E+00
  -3.271  0.106E+00  0.106E+00
  -3.261  0.897E-01  0.897E-01
  -3.251  0.754E-01  0.754E-01
  -3.241  0.627E-01  0.627E-01
  -3.231  0.516E-01  0.516E-01
  -3.221  0.420E-01  0.420E-01
  -3.211  0.339E-01  0.339E-01
  -3.201  0.272E-01  0.272E-01
  -3.191  0.216E-01  0.216E-01
  -3.181  0.172E-01  0.172E-01
  -3.171  0.137E-01  0.137E-01
  -3.161  0.111E-01  0.111E-01
  -3.151  0.927E-02  0.927E-02
  -3.141  0.815E-02  0.815E-02
  -3.131  0.771E-02  0.771E-02
  -3.121  0.791E-02  0.791E-02
  -3.111  0.876E-02  0.876E-02
  -3.101  0.103E-01  0.103E-01
  -3.091  0.126E-01  0.126E-01
  -3.081  0.156E-01  0.156E-01
  -3.071  0.196E-01  0.196E-01
  -3.061  0.245E-01  0.245E-01
  -3.051  0.305E-01  0.305E-01
  -3.041  0.377E-01  0.377E-01
  -3.031  0.461E-01  0.461E-01
  -3.021  0.559E-01  0.559E-01
  -3.011  0.672E-01  0.672E-01
  -3.001  0.798E-01  0.798E-01
  -2.991  0.939E-01  0.939E-01
  -2.981  0.109E+00  0.109E+00
  -2.971  0.126E+00  0.126E+00
  -2.961  0.144E+00  0.144E+00
  -2.951  0.162E+00  0.162E+00
  -2.941  0.181E+00  0.181E+00
  -2.931  0.201E+00  0.201E+00
  -2.921  0.220E+00  0.220E+00
  -2.911  0.239E+00  0.239E+00
  -2.901  0.258E+00  0.258E+00
  -2.891  0.275E+00  0.275E+00
  -2.881  0.292E+00  0.292E+00
  -2.871  0.307E+00  0.307E+00
  -2.861  0.321E+00  0.321E+00
  -2.851  0.334E+00  0.334E+00
  -2.841  0.345E+00  0.345E+00
  -2.831  0.355E+00  0.355E+00
  -2.821  0.365E+00  0.365E+00
  -2.811  0.374E+00  0.374E+00
  -2.801  0.383E+00  0.383E+00
  -2.791  0.392E+00  0.392E+00
  -2.781  0.401E+00  0.401E+00
  -2.771  0.410E+00  0.410E+00
  -2.761  0.420E+00  0.420E+00
  -2.751  0.431E+00  0.431E+00
  -2.741  0.442E+00  0.442E+00
  -2.731  0.454E+00  0.454E+00
  -2.721  0.465E+00  0.465E+00
  -2.711  0.475E+00  0.475E+00
  -2.701  0.485E+00  0.485E+00
  -2.691  0.493E+00  0.493E+00
  -2.681  0.498E+00  0.498E+00
  -2.671  0.501E+00  0.501E+00
  -2.661  0.501E+00  0.501E+00
  -2.651  0.497E+00  0.497E+00
  -2.641  0.490E+00  0.490E+00
  -2.631  0.478E+00  0.478E+00
  -2.621  0.463E+00  0.463E+00
  -2.611  0.445E+00  0.445E+00
  -2.601  0.423E+00  0.423E+00
  -2.591  0.398E+00  0.398E+00
  -2.581  0.371E+00  0.371E+00
  -2.571  0.343E+00  0.343E+00
  -2.561  0.313E+00  0.313E+00
  -2.551  0.283E+00  0.283E+00
  -2.541  0.254E+00  0.254E+00
  -2.531  0.225E+00  0.225E+00
  -2.521  0.197E+00  0.197E+00
  -2.511  0.171E+00  0.171E+00
  -2.501  0.147E+00  0.147E+00
  -2.491  0.124E+00  0.124E+00
  -2.481  0.105E+00  0.105E+00
  -2.471  0.869E-01  0.869E-01
  -2.461  0.715E-01  0.715E-01
  -2.451  0.581E-01  0.581E-01
  -2.441  0.468E-01  0.468E-01
  -2.431  0.373E-01  0.373E-01
  -2.421  0.294E-01  0.294E-01
  -2.411  0.229E-01  0.229E-01
  -2.401  0.176E-01  0.176E-01
  -2.391  0.135E-01  0.135E-01
  -2.381  0.102E-01  0.102E-01
  -2.371  0.758E-02  0.758E-02
  -2.361  0.560E-02  0.560E-02
  -2.351  0.409E-02  0.409E-02
  -2.341  0.296E-02  0.296E-02
  -2.331  0.211E-02  0.211E-02
  -2.321  0.150E-02  0.150E-02
  -2.311  0.105E-02  0.105E-02
  -2.301  0.724E-03  0.724E-03
  -2.291  0.496E-03  0.496E-03
  -2.281  0.336E-03  0.336E-03
  -2.271  0.225E-03  0.225E-03
  -2.261  0.150E-03  0.150E-03
  -2.251  0.985E-04  0.985E-04
  -2.241  0.645E-04  0.645E-04
  -2.231  0.423E-04  0.423E-04
  -2.221  0.283E-04  0.283E-04
  -2.211  0.201E-04  0.201E-04
  -2.201  0.161E-04  0.161E-04
  -2.191  0.156E-04  0.156E-04
  -2.181  0.182E-04  0.182E-04
  -2.171  0.243E-04  0.243E-04
  -2.161  0.346E-04  0.346E-04
  -2.151  0.505E-04  0.505E-04
  -2.141  0.740E-04  0.740E-04
  -2.131  0.108E-03  0.108E-03
  -2.121  0.156E-03  0.156E-03
  -2.111  0.224E-03  0.224E-03
  -2.101  0.317E-03  0.317E-03
  -2.091  0.445E-03  0.445E-03
  -2.081  0.619E-03  0.619E-03
  -2.071  0.852E-03  0.852E-03
  -2.061  0.116E-02  0.116E-02
  -2.051  0.157E-02  0.157E-02
  -2.041  0.209E-02  0.209E-02
  -2.031  0.277E-02  0.277E-02
  -2.021  0.362E-02  0.362E-02
  -2.011  0.470E-02  0.470E-02
  -2.001  0.605E-02  0.605E-02
  -1.991  0.771E-02  0.771E-02
  -1.981  0.973E-02  0.973E-02
  -1.971  0.122E-01  0.122E-01
  -1.961  0.151E-01  0.151E-01
  -1.951  0.186E-01  0.186E-01
  -1.941  0.227E-01  0.227E-01
  -1.931  0.274E-01  0.274E-01
  -1.921  0.329E-01  0.329E-01
  -1.911  0.393E-01  0.393E-01
  -1.901  0.464E-01  0.464E-01
  -1.891  0.545E-01  0.545E-01
  -1.881  0.636E-01  0.636E-01
  -1.871  0.736E-01  0.736E-01
  -1.861  0.846E-01  0.846E-01
  -1.851  0.966E-01  0.966E-01
  -1.841  0.110E+00  0.110E+00
  -1.831  0.123E+00  0.123E+00
  -1.821  0.138E+00  0.138E+00
  -1.811  0.153E+00  0.153E+00
  -1.801  0.169E+00  0.169E+00
  -1.791  0.186E+00  0.186E+00
  -1.781  0.202E+00  0.202E+00
  -1.771  0.218E+00  0.218E+00
  -1.761  0.234E+00  0.234E+00
  -1.751  0.249E+00  0.249E+00
  -1.741  0.263E+00  0.263E+00
  -1.731  0.276E+00  0.276E+00
  -1.721  0.287E+00  0.287E+00
  -1.711  0.296E+00  0.296E+00
  -1.701  0.302E+00  0.302E+00
  -1.691  0.306E+00  0.306E+00
  -1.681  0.307E+00  0.307E+00
  -1.671  0.305E+00  0.305E+00
  -1.661  0.301E+00  0.301E+00
  -1.651  0.294E+00  0.294E+00
  -1.641  0.284E+00  0.284E+00
  -1.631  0.272E+00  0.272E+00
  -1.621  0.258E+00  0.258E+00
  -1.611  0.242E+00  0.242E+00
  -1.601  0.225E+00  0.225E+00
  -1.591  0.207E+00  0.207E+00
  -1.581  0.189E+00  0.189E+00
  -1.571  0.170E+00  0.170E+00
  -1.561  0.152E+00  0.152E+00
  -1.551  0.134E+00  0.134E+00
  -1.541  0.117E+00  0.117E+00
  -1.531  0.102E+00  0.102E+00
  -1.521  0.870E-01  0.870E-01
  -1.511  0.737E-01  0.737E-01
  -1.501  0.617E-01  0.617E-01
  -1.491  0.512E-01  0.512E-01
  -1.481  0.420E-01  0.420E-01
  -1.471  0.341E-01  0.341E-01
  -1.461  0.274E-01  0.274E-01
  -1.451  0.218E-01  0.218E-01
  -1.441  0.171E-01  0.171E-01
  -1.431  0.133E-01  0.133E-01
  -1.421  0.103E-01  0.103E-01
  -1.411  0.781E-02  0.781E-02
  -1.401  0.588E-02  0.588E-02
  -1.391  0.438E-02  0.438E-02
  -1.381  0.323E-02  0.323E-02
  -1.371  0.236E-02  0.236E-02
  -1.361  0.170E-02  0.170E-02
  -1.351  0.122E-02  0.122E-02
  -1.341  0.861E-03  0.861E-03
  -1.331  0.605E-03  0.605E-03
  -1.321  0.424E-03  0.424E-03
  -1.311  0.298E-03  0.298E-03
  -1.301  0.213E-03  0.213E-03
  -1.291  0.161E-03  0.161E-03
  -1.281  0.132E-03  0.132E-03
  -1.271  0.123E-03  0.123E-03
  -1.261  0.133E-03  0.133E-03
  -1.251  0.160E-03  0.160E-03
  -1.241  0.206E-03  0.206E-03
  -1.231  0.274E-03  0.274E-03
  -1.221  0.369E-03  0.369E-03
  -1.211  0.498E-03  0.498E-03
  -1.201  0.670E-03  0.670E-03
  -1.191  0.894E-03  0.894E-03
  -1.181  0.119E-02  0.119E-02
  -1.171  0.156E-02  0.156E-02
  -1.161  0.204E-02  0.204E-02
  -1.151  0.264E-02  0.264E-02
  -1.141  0.340E-02  0.340E-02
  -1.131  0.435E-02  0.435E-02
  -1.121  0.552E-02  0.552E-02
  -1.111  0.696E-02  0.696E-02
  -1.101  0.872E-02  0.872E-02
  -1.091  0.109E-01  0.109E-01
  -1.081  0.134E-01  0.134E-01
  -1.071  0.165E-01  0.165E-01
  -1.061  0.202E-01  0.202E-01
  -1.051  0.246E-01  0.246E-01
  -1.041  0.297E-01  0.297E-01
  -1.031  0.357E-01  0.357E-01
  -1.021  0.426E-01  0.426E-01
  -1.011  0.505E-01  0.505E-01
  -1.001  0.595E-01  0.595E-01
  -0.991  0.696E-01  0.696E-01
  -0.981  0.809E-01  0.809E-01
  -0.971  0.935E-01  0.935E-01
  -0.961  0.107E+00  0.107E+00
  -0.951  0.122E+00  0.122E+00
  -0.941  0.138E+00  0.138E+00
  -0.931  0.154E+00  0.154E+00
  -0.921  0.172E+00  0.172E+00
  -0.911  0.189E+00  0.189E+00
  -0.901  0.207E+00  0.207E+00
  -0.891  0.225E+00  0.225E+00
  -0.881  0.242E+00  0.242E+00
  -0.871  0.259E+00  0.259E+00
  -0.861  0.275E+00  0.275E+00
  -0.851  0.289E+00  0.289E+00
  -0.841  0.301E+00  0.301E+00
  -0.831  0.312E+00  0.312E+00
  -0.821  0.321E+00  0.321E+00
  -0.811  0.328E+00  0.328E+00
  -0.801  0.333E+00  0.333E+00
  -0.791  0.337E+00  0.337E+00
  -0.781  0.339E+00  0.339E+00
  -0.771  0.339E+00  0.339E+00
  -0.761  0.339E+00  0.339E+00
  -0.751  0.338E+00  0.338E+00
  -0.741  0.337E+00  0.337E+00
  -0.731  0.337E+00  0.337E+00
  -0.721  0.337E+00  0.337E+00
  -0.711  0.338E+00  0.338E+00
  -0.701  0.340E+00  0.340E+00
  -0.691  0.343E+00  0.343E+00
  -0.681  0.348E+00  0.348E+00
  -0.671  0.355E+00  0.355E+00
  -0.661  0.362E+00  0.362E+00
  -0.651  0.370E+00  0.370E+00
  -0.641  0.379E+00  0.379E+00
  -0.631  0.388E+00  0.388E+00
  -0.621  0.397E+00  0.397E+00
  -0.611  0.404E+00  0.404E+00
  -0.601  0.410E+00  0.410E+00
  -0.591  0.413E+00  0.413E+00
  -0.581  0.414E+00  0.414E+00
  -0.571  0.413E+00  0.413E+00
  -0.561  0.408E+00  0.408E+00
  -0.551  0.400E+00  0.400E+00
  -0.541  0.389E+00  0.389E+00
  -0.531  0.375E+00  0.375E+00
  -0.521  0.358E+00  0.358E+00
  -0.511  0.338E+00  0.338E+00
  -0.501  0.317E+00  0.317E+00
  -0.491  0.294E+00  0.294E+00
  -0.481  0.270E+00  0.270E+00
  -0.471  0.246E+00  0.246E+00
  -0.461  0.221E+00  0.221E+00
  -0.451  0.197E+00  0.197E+00
  -0.441  0.174E+00  0.174E+00
  -0.431  0.152E+00  0.152E+00
  -0.421  0.131E+00  0.131E+00
  -0.411  0.112E+00  0.112E+00
  -0.401  0.947E-01  0.947E-01
  -0.391  0.793E-01  0.793E-01
  -0.381  0.657E-01  0.657E-01
  -0.371  0.539E-01  0.539E-01
  -0.361  0.438E-01  0.438E-01
  -0.351  0.353E-01  0.353E-01
  -0.341  0.281E-01  0.281E-01
  -0.331  0.223E-01  0.223E-01
  -0.321  0.176E-01  0.176E-01
  -0.311  0.139E-01  0.139E-01
  -0.301  0.110E-01  0.110E-01
  -0.291  0.899E-02  0.899E-02
  -0.281  0.762E-02  0.762E-02
  -0.271  0.686E-02  0.686E-02
  -0.261  0.666E-02  0.666E-02
  -0.251  0.700E-02  0.700E-02
  -0.241  0.787E-02  0.787E-02
  -0.231  0.927E-02  0.927E-02
  -0.221  0.112E-01  0.112E-01
  -0.211  0.138E-01  0.138E-01
  -0.201  0.170E-01  0.170E-01
  -0.191  0.209E-01  0.209E-01
  -0.181  0.255E-01  0.255E-01
  -0.171  0.309E-01  0.309E-01
  -0.161  0.371E-01  0.371E-01
  -0.151  0.440E-01  0.440E-01
  -0.141  0.517E-01  0.517E-01
  -0.131  0.601E-01  0.601E-01
  -0.121  0.691E-01  0.691E-01
  -0.111  0.786E-01  0.786E-01
  -0.101  0.885E-01  0.885E-01
  -0.091  0.986E-01  0.986E-01
  -0.081  0.109E+00  0.109E+00
  -0.071  0.118E+00  0.118E+00
  -0.061  0.128E+00  0.128E+00
  -0.051  0.136E+00  0.136E+00
  -0.041  0.144E+00  0.144E+00
  -0.031  0.150E+00  0.150E+00
  -0.021  0.155E+00  0.155E+00
  -0.011  0.158E+00  0.158E+00
  -0.001  0.160E+00  0.160E+00
   0.009  0.160E+00  0.160E+00
   0.019  0.158E+00  0.158E+00
   0.029  0.155E+00  0.155E+00
   0.039  0.150E+00  0.150E+00
   0.049  0.144E+00  0.144E+00
   0.059  0.137E+00  0.137E+00
   0.069  0.129E+00  0.129E+00
   0.079  0.121E+00  0.121E+00
   0.089  0.112E+00  0.112E+00
   0.099  0.104E+00  0.104E+00
   0.109  0.955E-01  0.955E-01
   0.119  0.879E-01  0.879E-01
   0.129  0.813E-01  0.813E-01
   0.139  0.758E-01  0.758E-01
   0.149  0.717E-01  0.717E-01
   0.159  0.692E-01  0.692E-01
   0.169  0.683E-01  0.683E-01
   0.179  0.692E-01  0.692E-01
   0.189  0.718E-01  0.718E-01
   0.199  0.763E-01  0.763E-01
   0.209  0.825E-01  0.825E-01
   0.219  0.903E-01  0.903E-01
   0.229  0.996E-01  0.996E-01
   0.239  0.110E+00  0.110E+00
   0.249  0.122E+00  0.122E+00
   0.259  0.134E+00  0.134E+00
   0.269  0.147E+00  0.147E+00
   0.279  0.160E+00  0.160E+00
   0.289  0.172E+00  0.172E+00
   0.299  0.184E+00  0.184E+00
   0.309  0.194E+00  0.194E+00
   0.319  0.204E+00  0.204E+00
   0.329  0.211E+00  0.211E+00
   0.339  0.217E+00  0.217E+00
   0.349  0.220E+00  0.220E+00
   0.359  0.221E+00  0.221E+00
   0.369  0.220E+00  0.220E+00
   0.379  0.216E+00  0.216E+00
   0.389  0.210E+00  0.210E+00
   0.399  0.203E+00  0.203E+00
   0.409  0.193E+00  0.193E+00
   0.419  0.182E+00  0.182E+00
   0.429  0.171E+00  0.171E+00
   0.439  0.158E+00  0.158E+00
   0.449  0.145E+00  0.145E+00
   0.459  0.132E+00  0.132E+00
   0.469  0.119E+00  0.119E+00
   0.479  0.107E+00  0.107E+00
   0.489  0.959E-01  0.959E-01
   0.499  0.857E-01  0.857E-01
   0.509  0.766E-01  0.766E-01
   0.519  0.687E-01  0.687E-01
   0.529  0.621E-01  0.621E-01
   0.539  0.568E-01  0.568E-01
   0.549  0.526E-01  0.526E-01
   0.559  0.496E-01  0.496E-01
   0.569  0.476E-01  0.476E-01
   0.579  0.464E-01  0.464E-01
   0.589  0.459E-01  0.459E-01
   0.599  0.459E-01  0.459E-01
   0.609  0.463E-01  0.463E-01
   0.619  0.469E-01  0.469E-01
   0.629  0.475E-01  0.475E-01
   0.639  0.481E-01  0.481E-01
   0.649  0.486E-01  0.486E-01
   0.659  0.488E-01  0.488E-01
   0.669  0.486E-01  0.486E-01
   0.679  0.481E-01  0.481E-01
   0.689  0.473E-01  0.473E-01
   0.699  0.461E-01  0.461E-01
   0.709  0.445E-01  0.445E-01
   0.719  0.427E-01  0.427E-01
   0.729  0.407E-01  0.407E-01
   0.739  0.386E-01  0.386E-01
   0.749  0.365E-01  0.365E-01
   0.759  0.344E-01  0.344E-01
   0.769  0.325E-01  0.325E-01
   0.779  0.308E-01  0.308E-01
   0.789  0.294E-01  0.294E-01
   0.799  0.284E-01  0.284E-01
   0.809  0.279E-01  0.279E-01
   0.819  0.278E-01  0.278E-01
   0.829  0.282E-01  0.282E-01
   0.839  0.291E-01  0.291E-01
   0.849  0.305E-01  0.305E-01
   0.859  0.323E-01  0.323E-01
   0.869  0.344E-01  0.344E-01
   0.879  0.369E-01  0.369E-01
   0.889  0.396E-01  0.396E-01
   0.899  0.424E-01  0.424E-01
   0.909  0.453E-01  0.453E-01
   0.919  0.480E-01  0.480E-01
   0.929  0.506E-01  0.506E-01
   0.939  0.529E-01  0.529E-01
   0.949  0.548E-01  0.548E-01
   0.959  0.562E-01  0.562E-01
   0.969  0.571E-01  0.571E-01
   0.979  0.574E-01  0.574E-01
   0.989  0.572E-01  0.572E-01
   0.999  0.563E-01  0.563E-01
   1.009  0.549E-01  0.549E-01
   1.019  0.530E-01  0.530E-01
   1.029  0.506E-01  0.506E-01
   1.039  0.477E-01  0.477E-01
   1.049  0.446E-01  0.446E-01
   1.059  0.412E-01  0.412E-01
   1.069  0.377E-01  0.377E-01
   1.079  0.341E-01  0.341E-01
   1.089  0.305E-01  0.305E-01
   1.099  0.270E-01  0.270E-01
   1.109  0.236E-01  0.236E-01
   1.119  0.205E-01  0.205E-01
   1.129  0.175E-01  0.175E-01
   1.139  0.149E-01  0.149E-01
   1.149  0.125E-01  0.125E-01
   1.159  0.104E-01  0.104E-01
   1.169  0.855E-02  0.855E-02
   1.179  0.698E-02  0.698E-02
   1.189  0.566E-02  0.566E-02
   1.199  0.459E-02  0.459E-02
   1.209  0.373E-02  0.373E-02
   1.219  0.308E-02  0.308E-02
   1.229  0.263E-02  0.263E-02
   1.239  0.237E-02  0.237E-02
   1.249  0.230E-02  0.230E-02
   1.259  0.243E-02  0.243E-02
   1.269  0.276E-02  0.276E-02
   1.279  0.333E-02  0.333E-02
   1.289  0.417E-02  0.417E-02
   1.299  0.531E-02  0.531E-02
   1.309  0.682E-02  0.682E-02
   1.319  0.873E-02  0.873E-02
   1.329  0.111E-01  0.111E-01
   1.339  0.141E-01  0.141E-01
   1.349  0.176E-01  0.176E-01
   1.359  0.218E-01  0.218E-01
   1.369  0.268E-01  0.268E-01
   1.379  0.326E-01  0.326E-01
   1.389  0.391E-01  0.391E-01
   1.399  0.465E-01  0.465E-01
   1.409  0.547E-01  0.547E-01
   1.419  0.637E-01  0.637E-01
   1.429  0.733E-01  0.733E-01
   1.439  0.835E-01  0.835E-01
   1.449  0.941E-01  0.941E-01
   1.459  0.105E+00  0.105E+00
   1.469  0.116E+00  0.116E+00
   1.479  0.126E+00  0.126E+00
   1.489  0.136E+00  0.136E+00
   1.499  0.145E+00  0.145E+00
   1.509  0.153E+00  0.153E+00
   1.519  0.160E+00  0.160E+00
   1.529  0.166E+00  0.166E+00
   1.539  0.169E+00  0.169E+00
   1.549  0.171E+00  0.171E+00
   1.559  0.171E+00  0.171E+00
   1.569  0.170E+00  0.170E+00
   1.579  0.166E+00  0.166E+00
   1.589  0.161E+00  0.161E+00
   1.599  0.154E+00  0.154E+00
   1.609  0.146E+00  0.146E+00
   1.619  0.137E+00  0.137E+00
   1.629  0.127E+00  0.127E+00
   1.639  0.117E+00  0.117E+00
   1.649  0.106E+00  0.106E+00
   1.659  0.954E-01  0.954E-01
   1.669  0.849E-01  0.849E-01
   1.679  0.747E-01  0.747E-01
   1.689  0.651E-01  0.651E-01
   1.699  0.561E-01  0.561E-01
   1.709  0.479E-01  0.479E-01
   1.719  0.406E-01  0.406E-01
   1.729  0.341E-01  0.341E-01
   1.739  0.285E-01  0.285E-01
   1.749  0.238E-01  0.238E-01
   1.759  0.198E-01  0.198E-01
   1.769  0.166E-01  0.166E-01
   1.779  0.142E-01  0.142E-01
   1.789  0.124E-01  0.124E-01
   1.799  0.112E-01  0.112E-01
   1.809  0.105E-01  0.105E-01
   1.819  0.103E-01  0.103E-01
   1.829  0.105E-01  0.105E-01
   1.839  0.111E-01  0.111E-01
   1.849  0.121E-01  0.121E-01
   1.859  0.133E-01  0.133E-01
   1.869  0.147E-01  0.147E-01
   1.879  0.163E-01  0.163E-01
   1.889  0.180E-01  0.180E-01
   1.899  0.198E-01  0.198E-01
   1.909  0.216E-01  0.216E-01
   1.919  0.234E-01  0.234E-01
   1.929  0.251E-01  0.251E-01
   1.939  0.267E-01  0.267E-01
   1.949  0.281E-01  0.281E-01
   1.959  0.293E-01  0.293E-01
   1.969  0.303E-01  0.303E-01
   1.979  0.310E-01  0.310E-01
   1.989  0.315E-01  0.315E-01
   1.999  0.318E-01  0.318E-01
   2.009  0.319E-01  0.319E-01
   2.019  0.318E-01  0.318E-01
   2.029  0.317E-01  0.317E-01
   2.039  0.315E-01  0.315E-01
   2.049  0.313E-01  0.313E-01
   2.059  0.313E-01  0.313E-01
   2.069  0.315E-01  0.315E-01
   2.079  0.319E-01  0.319E-01
   2.089  0.327E-01  0.327E-01
   2.099  0.340E-01  0.340E-01
   2.109  0.357E-01  0.357E-01
   2.119  0.378E-01  0.378E-01
   2.129  0.405E-01  0.405E-01
   2.139  0.437E-01  0.437E-01
   2.149  0.474E-01  0.474E-01
   2.159  0.514E-01  0.514E-01
   2.169  0.559E-01  0.559E-01
   2.179  0.605E-01  0.605E-01
   2.189  0.654E-01  0.654E-01
   2.199  0.702E-01  0.702E-01
   2.209  0.750E-01  0.750E-01
   2.219  0.796E-01  0.796E-01
   2.229  0.838E-01  0.838E-01
   2.239  0.877E-01  0.877E-01
   2.249  0.910E-01  0.910E-01
   2.259  0.937E-01  0.937E-01
   2.269  0.958E-01  0.958E-01
   2.279  0.971E-01  0.971E-01
   2.289  0.979E-01  0.979E-01
   2.299  0.979E-01  0.979E-01
   2.309  0.973E-01  0.973E-01
   2.319  0.960E-01  0.960E-01
   2.329  0.942E-01  0.942E-01
   2.339  0.919E-01  0.919E-01
   2.349  0.892E-01  0.892E-01
   2.359  0.861E-01  0.861E-01
   2.369  0.827E-01  0.827E-01
   2.379  0.791E-01  0.791E-01
   2.389  0.753E-01  0.753E-01
   2.399  0.713E-01  0.713E-01
   2.409  0.673E-01  0.673E-01
   2.419  0.631E-01  0.631E-01
   2.429  0.590E-01  0.590E-01
   2.439  0.548E-01  0.548E-01
   2.449  0.507E-01  0.507E-01
   2.459  0.466E-01  0.466E-01
   2.469  0.427E-01  0.427E-01
   2.479  0.388E-01  0.388E-01
   2.489  0.350E-01  0.350E-01
   2.499  0.314E-01  0.314E-01
   2.509  0.279E-01  0.279E-01
   2.519  0.247E-01  0.247E-01
   2.529  0.217E-01  0.217E-01
   2.539  0.188E-01  0.188E-01
   2.549  0.162E-01  0.162E-01
   2.559  0.139E-01  0.139E-01
   2.569  0.118E-01  0.118E-01
   2.579  0.993E-02  0.993E-02
   2.589  0.829E-02  0.829E-02
   2.599  0.688E-02  0.688E-02
   2.609  0.568E-02  0.568E-02
   2.619  0.468E-02  0.468E-02
   2.629  0.388E-02  0.388E-02
   2.639  0.325E-02  0.325E-02
   2.649  0.280E-02  0.280E-02
   2.659  0.251E-02  0.251E-02
   2.669  0.238E-02  0.238E-02
   2.679  0.241E-02  0.241E-02
   2.689  0.261E-02  0.261E-02
   2.699  0.298E-02  0.298E-02
   2.709  0.353E-02  0.353E-02
   2.719  0.429E-02  0.429E-02
   2.729  0.525E-02  0.525E-02
   2.739  0.645E-02  0.645E-02
   2.749  0.790E-02  0.790E-02
   2.759  0.961E-02  0.961E-02
   2.769  0.116E-01  0.116E-01
   2.779  0.139E-01  0.139E-01
   2.789  0.164E-01  0.164E-01
   2.799  0.192E-01  0.192E-01
   2.809  0.223E-01  0.223E-01
   2.819  0.255E-01  0.255E-01
   2.829  0.290E-01  0.290E-01
   2.839  0.326E-01  0.326E-01
   2.849  0.362E-01  0.362E-01
   2.859  0.398E-01  0.398E-01
   2.869  0.432E-01  0.432E-01
   2.879  0.465E-01  0.465E-01
   2.889  0.496E-01  0.496E-01
   2.899  0.522E-01  0.522E-01
   2.909  0.545E-01  0.545E-01
   2.919  0.563E-01  0.563E-01
   2.929  0.576E-01  0.576E-01
   2.939  0.583E-01  0.583E-01
   2.949  0.586E-01  0.586E-01
   2.959  0.584E-01  0.584E-01
   2.969  0.577E-01  0.577E-01
   2.979  0.566E-01  0.566E-01
   2.989  0.553E-01  0.553E-01
   2.999  0.538E-01  0.538E-01
   3.009  0.522E-01  0.522E-01
   3.019  0.506E-01  0.506E-01
   3.029  0.492E-01  0.492E-01
   3.039  0.480E-01  0.480E-01
   3.049  0.471E-01  0.471E-01
   3.059  0.467E-01  0.467E-01
   3.069  0.466E-01  0.466E-01
   3.079  0.471E-01  0.471E-01
   3.089  0.480E-01  0.480E-01
   3.099  0.494E-01  0.494E-01
   3.109  0.511E-01  0.511E-01
   3.119  0.532E-01  0.532E-01
   3.129  0.554E-01  0.554E-01
   3.139  0.577E-01  0.577E-01
   3.149  0.601E-01  0.601E-01
   3.159  0.622E-01  0.622E-01
   3.169  0.641E-01  0.641E-01
   3.179  0.657E-01  0.657E-01
   3.189  0.668E-01  0.668E-01
   3.199  0.673E-01  0.673E-01
   3.209  0.673E-01  0.673E-01
   3.219  0.666E-01  0.666E-01
   3.229  0.653E-01  0.653E-01
   3.239  0.634E-01  0.634E-01
   3.249  0.610E-01  0.610E-01
   3.259  0.580E-01  0.580E-01
   3.269  0.547E-01  0.547E-01
   3.279  0.510E-01  0.510E-01
   3.289  0.472E-01  0.472E-01
   3.299  0.432E-01  0.432E-01
   3.309  0.393E-01  0.393E-01
   3.319  0.354E-01  0.354E-01
   3.329  0.318E-01  0.318E-01
   3.339  0.285E-01  0.285E-01
   3.349  0.255E-01  0.255E-01
   3.359  0.229E-01  0.229E-01
   3.369  0.208E-01  0.208E-01
   3.379  0.191E-01  0.191E-01
   3.389  0.181E-01  0.181E-01
   3.399  0.175E-01  0.175E-01
   3.409  0.175E-01  0.175E-01
   3.419  0.180E-01  0.180E-01
   3.429  0.190E-01  0.190E-01
   3.439  0.205E-01  0.205E-01
   3.449  0.225E-01  0.225E-01
   3.459  0.248E-01  0.248E-01
   3.469  0.275E-01  0.275E-01
   3.479  0.304E-01  0.304E-01
   3.489  0.335E-01  0.335E-01
   3.499  0.368E-01  0.368E-01
   3.509  0.400E-01  0.400E-01
   3.519  0.432E-01  0.432E-01
   3.529  0.462E-01  0.462E-01
   3.539  0.490E-01  0.490E-01
   3.549  0.514E-01  0.514E-01
   3.559  0.534E-01  0.534E-01
   3.569  0.550E-01  0.550E-01
   3.579  0.561E-01  0.561E-01
   3.589  0.566E-01  0.566E-01
   3.599  0.565E-01  0.565E-01
   3.609  0.560E-01  0.560E-01
   3.619  0.549E-01  0.549E-01
   3.629  0.534E-01  0.534E-01
   3.639  0.514E-01  0.514E-01
   3.649  0.492E-01  0.492E-01
   3.659  0.467E-01  0.467E-01
   3.669  0.440E-01  0.440E-01
   3.679  0.413E-01  0.413E-01
   3.689  0.386E-01  0.386E-01
   3.699  0.361E-01  0.361E-01
   3.709  0.338E-01  0.338E-01
   3.719  0.318E-01  0.318E-01
   3.729  0.302E-01  0.302E-01
   3.739  0.290E-01  0.290E-01
   3.749  0.284E-01  0.284E-01
   3.759  0.283E-01  0.283E-01
   3.769  0.288E-01  0.288E-01
   3.779  0.298E-01  0.298E-01
   3.789  0.315E-01  0.315E-01
   3.799  0.338E-01  0.338E-01
   3.809  0.366E-01  0.366E-01
   3.819  0.400E-01  0.400E-01
   3.829  0.438E-01  0.438E-01
   3.839  0.480E-01  0.480E-01
   3.849  0.525E-01  0.525E-01
   3.859  0.572E-01  0.572E-01
   3.869  0.619E-01  0.619E-01
   3.879  0.667E-01  0.667E-01
   3.889  0.712E-01  0.712E-01
   3.899  0.755E-01  0.755E-01
   3.909  0.794E-01  0.794E-01
   3.919  0.828E-01  0.828E-01
   3.929  0.855E-01  0.855E-01
   3.939  0.875E-01  0.875E-01
   3.949  0.888E-01  0.888E-01
   3.959  0.892E-01  0.892E-01
   3.969  0.889E-01  0.889E-01
   3.979  0.876E-01  0.876E-01
   3.989  0.856E-01  0.856E-01
   3.999  0.828E-01  0.828E-01
   4.009  0.794E-01  0.794E-01
   4.019  0.754E-01  0.754E-01
   4.029  0.708E-01  0.708E-01
   4.039  0.660E-01  0.660E-01
   4.049  0.608E-01  0.608E-01
   4.059  0.555E-01  0.555E-01
   4.069  0.502E-01  0.502E-01
   4.079  0.449E-01  0.449E-01
   4.089  0.398E-01  0.398E-01
   4.099  0.350E-01  0.350E-01
   4.109  0.304E-01  0.304E-01
   4.119  0.261E-01  0.261E-01
   4.129  0.223E-01  0.223E-01
   4.139  0.188E-01  0.188E-01
   4.149  0.157E-01  0.157E-01
   4.159  0.130E-01  0.130E-01
   4.169  0.106E-01  0.106E-01
   4.179  0.858E-02  0.858E-02
   4.189  0.687E-02  0.687E-02
   4.199  0.545E-02  0.545E-02
   4.209  0.428E-02  0.428E-02
   4.219  0.333E-02  0.333E-02
   4.229  0.256E-02  0.256E-02
   4.239  0.195E-02  0.195E-02
   4.249  0.147E-02  0.147E-02
   4.259  0.109E-02  0.109E-02
   4.269  0.807E-03  0.807E-03
   4.279  0.589E-03  0.589E-03
   4.289  0.426E-03  0.426E-03
   4.299  0.304E-03  0.304E-03
   4.309  0.215E-03  0.215E-03
   4.319  0.151E-03  0.151E-03
   4.329  0.104E-03  0.104E-03
   4.339  0.715E-04  0.715E-04
   4.349  0.485E-04  0.485E-04
   4.359  0.326E-04  0.326E-04
   4.369  0.216E-04  0.216E-04
   4.379  0.142E-04  0.142E-04
   4.389  0.923E-05  0.923E-05
   4.399  0.593E-05  0.593E-05
   4.409  0.378E-05  0.378E-05
   4.419  0.238E-05  0.238E-05
   4.429  0.148E-05  0.148E-05
   4.439  0.912E-06  0.912E-06
   4.449  0.556E-06  0.556E-06
   4.459  0.335E-06  0.335E-06
   4.469  0.200E-06  0.200E-06
   4.479  0.118E-06  0.118E-06
   4.489  0.690E-07  0.690E-07
   4.499  0.399E-07  0.399E-07
   4.509  0.228E-07  0.228E-07
   4.519  0.129E-07  0.129E-07
   4.529  0.722E-08  0.722E-08
   4.539  0.400E-08  0.400E-08
   4.549  0.219E-08  0.219E-08
   4.559  0.119E-08  0.119E-08
   4.569  0.636E-09  0.636E-09
   4.579  0.337E-09  0.337E-09
   4.589  0.177E-09  0.177E-09
   4.599  0.918E-10  0.918E-10
   4.609  0.472E-10  0.472E-10
   4.619  0.239E-10  0.239E-10
   4.629  0.121E-10  0.121E-10
   4.639  0.610E-11  0.610E-11
   4.649  0.310E-11  0.310E-11
   4.659  0.163E-11  0.163E-11
   4.669  0.918E-12  0.918E-12
   4.679  0.587E-12  0.587E-12
   4.689  0.290E-12  0.290E-12
   4.699  0.320E-12  0.320E-12
   4.709  0.348E-12  0.348E-12
   4.719  0.376E-12  0.376E-12
   4.729  0.402E-12  0.402E-12
   4.739  0.425E-12  0.425E-12
   4.749  0.446E-12  0.446E-12
   4.759  0.462E-12  0.462E-12
   4.769  0.474E-12  0.474E-12
   4.779  0.482E-12  0.482E-12
   4.789  0.484E-12  0.484E-12
   4.799  0.482E-12  0.482E-12
   4.809  0.474E-12  0.474E-12
   4.819  0.462E-12  0.462E-12
   4.829  0.446E-12  0.446E-12
   4.839  0.425E-12  0.425E-12
   4.849  0.402E-12  0.402E-12
   4.859  0.375E-12  0.375E-12
   4.869  0.347E-12  0.347E-12
   4.879  0.318E-12  0.318E-12
   4.889  0.287E-12  0.287E-12
   4.899  0.258E-12  0.258E-12
   4.909  0.228E-12  0.228E-12
   4.919  0.200E-12  0.200E-12
   4.929  0.174E-12  0.174E-12
   4.939  0.149E-12  0.149E-12
   4.949  0.127E-12  0.127E-12
   4.959  0.107E-12  0.107E-12
   4.969  0.889E-13  0.889E-13
   4.979  0.733E-13  0.733E-13
   4.989  0.598E-13  0.598E-13
   4.999  0.483E-13  0.483E-13
   5.009  0.387E-13  0.387E-13
   5.019  0.306E-13  0.306E-13
   5.029  0.241E-13  0.241E-13
   5.039  0.187E-13  0.187E-13
   5.049  0.145E-13  0.145E-13
   5.059  0.111E-13  0.111E-13
   5.069  0.845E-14  0.845E-14
   5.079  0.640E-14  0.640E-14
   5.089  0.484E-14  0.484E-14
   5.099  0.366E-14  0.366E-14
   5.109  0.280E-14  0.280E-14
   5.119  0.218E-14  0.218E-14
   5.129  0.175E-14  0.175E-14
   5.139  0.149E-14  0.149E-14
   5.149  0.136E-14  0.136E-14
   5.159  0.135E-14  0.135E-14
   5.169  0.145E-14  0.145E-14
   5.179  0.166E-14  0.166E-14
   5.189  0.197E-14  0.197E-14
   5.199  0.240E-14  0.240E-14
   5.209  0.295E-14  0.295E-14
   5.219  0.363E-14  0.363E-14
   5.229  0.446E-14  0.446E-14
   5.239  0.544E-14  0.544E-14
   5.249  0.659E-14  0.659E-14
   5.259  0.790E-14  0.790E-14
   5.269  0.938E-14  0.938E-14
   5.279  0.110E-13  0.110E-13
   5.289  0.128E-13  0.128E-13
   5.299  0.148E-13  0.148E-13
   5.309  0.169E-13  0.169E-13
   5.319  0.190E-13  0.190E-13
   5.329  0.213E-13  0.213E-13
   5.339  0.235E-13  0.235E-13
   5.349  0.258E-13  0.258E-13
   5.359  0.279E-13  0.279E-13
   5.369  0.300E-13  0.300E-13
   5.379  0.319E-13  0.319E-13
   5.389  0.336E-13  0.336E-13
   5.399  0.350E-13  0.350E-13
   5.409  0.362E-13  0.362E-13
   5.419  0.370E-13  0.370E-13
   5.429  0.375E-13  0.375E-13
   5.439  0.377E-13  0.377E-13
   5.449  0.376E-13  0.376E-13
   5.459  0.371E-13  0.371E-13
   5.469  0.364E-13  0.364E-13
   5.479  0.353E-13  0.353E-13
   5.489  0.340E-13  0.340E-13
   5.499  0.325E-13  0.325E-13
   5.509  0.308E-13  0.308E-13
   5.519  0.290E-13  0.290E-13
   5.529  0.271E-13  0.271E-13
   5.539  0.251E-13  0.251E-13
   5.549  0.231E-13  0.231E-13
   5.559  0.211E-13  0.211E-13
   5.569  0.192E-13  0.192E-13
   5.579  0.173E-13  0.173E-13
   5.589  0.154E-13  0.154E-13
   5.599  0.137E-13  0.137E-13
   5.609  0.121E-13  0.121E-13
   5.619  0.106E-13  0.106E-13
   5.629  0.919E-14  0.919E-14
   5.639  0.793E-14  0.793E-14
   5.649  0.679E-14  0.679E-14
   5.659  0.577E-14  0.577E-14
   5.669  0.487E-14  0.487E-14
   5.679  0.409E-14  0.409E-14
   5.689  0.341E-14  0.341E-14
   5.699  0.283E-14  0.283E-14
   5.709  0.234E-14  0.234E-14
   5.719  0.193E-14  0.193E-14
   5.729  0.161E-14  0.161E-14
   5.739  0.136E-14  0.136E-14
   5.749  0.117E-14  0.117E-14
   5.759  0.104E-14  0.104E-14
   5.769  0.971E-15  0.971E-15
   5.779  0.951E-15  0.951E-15
   5.789  0.977E-15  0.977E-15
   5.799  0.105E-14  0.105E-14
   5.809  0.116E-14  0.116E-14
   5.819  0.131E-14  0.131E-14
   5.829  0.150E-14  0.150E-14
   5.839  0.172E-14  0.172E-14
   5.849  0.197E-14  0.197E-14
   5.859  0.224E-14  0.224E-14
   5.869  0.254E-14  0.254E-14
   5.879  0.284E-14  0.284E-14
   5.889  0.316E-14  0.316E-14
   5.899  0.347E-14  0.347E-14
   5.909  0.304E-12  0.304E-12
   5.919  0.631E-12  0.631E-12
   5.929  0.159E-11  0.159E-11
   5.939  0.326E-11  0.326E-11
   5.949  0.662E-11  0.662E-11
   5.959  0.133E-10  0.133E-10
   5.969  0.265E-10  0.265E-10
   5.979  0.522E-10  0.522E-10
   5.989  0.102E-09  0.102E-09
   5.999  0.196E-09  0.196E-09
   6.009  0.374E-09  0.374E-09
   6.019  0.705E-09  0.705E-09
   6.029  0.131E-08  0.131E-08
   6.039  0.243E-08  0.243E-08
   6.049  0.443E-08  0.443E-08
   6.059  0.801E-08  0.801E-08
   6.069  0.143E-07  0.143E-07
   6.079  0.253E-07  0.253E-07
   6.089  0.443E-07  0.443E-07
   6.099  0.767E-07  0.767E-07
   6.109  0.131E-06  0.131E-06
   6.119  0.223E-06  0.223E-06
   6.129  0.373E-06  0.373E-06
   6.139  0.619E-06  0.619E-06
   6.149  0.102E-05  0.102E-05
   6.159  0.165E-05  0.165E-05
   6.169  0.265E-05  0.265E-05
   6.179  0.421E-05  0.421E-05
   6.189  0.662E-05  0.662E-05
   6.199  0.103E-04  0.103E-04
   6.209  0.158E-04  0.158E-04
   6.219  0.241E-04  0.241E-04
   6.229  0.363E-04  0.363E-04
   6.239  0.541E-04  0.541E-04
   6.249  0.798E-04  0.798E-04
   6.259  0.116E-03  0.116E-03
   6.269  0.168E-03  0.168E-03
   6.279  0.240E-03  0.240E-03
   6.289  0.338E-03  0.338E-03
   6.299  0.473E-03  0.473E-03
   6.309  0.654E-03  0.654E-03
   6.319  0.894E-03  0.894E-03
   6.329  0.121E-02  0.121E-02
   6.339  0.162E-02  0.162E-02
   6.349  0.215E-02  0.215E-02
   6.359  0.281E-02  0.281E-02
   6.369  0.365E-02  0.365E-02
   6.379  0.468E-02  0.468E-02
   6.389  0.594E-02  0.594E-02
   6.399  0.745E-02  0.745E-02
   6.409  0.926E-02  0.926E-02
   6.419  0.114E-01  0.114E-01
   6.429  0.138E-01  0.138E-01
   6.439  0.166E-01  0.166E-01
   6.449  0.198E-01  0.198E-01
   6.459  0.233E-01  0.233E-01
   6.469  0.272E-01  0.272E-01
   6.479  0.313E-01  0.313E-01
   6.489  0.357E-01  0.357E-01
   6.499  0.403E-01  0.403E-01
   6.509  0.450E-01  0.450E-01
   6.519  0.497E-01  0.497E-01
   6.529  0.543E-01  0.543E-01
   6.539  0.587E-01  0.587E-01
   6.549  0.628E-01  0.628E-01
   6.559  0.665E-01  0.665E-01
   6.569  0.696E-01  0.696E-01
   6.579  0.721E-01  0.721E-01
   6.589  0.740E-01  0.740E-01
   6.599  0.751E-01  0.751E-01
   6.609  0.754E-01  0.754E-01
   6.619  0.749E-01  0.749E-01
   6.629  0.737E-01  0.737E-01
   6.639  0.718E-01  0.718E-01
   6.649  0.694E-01  0.694E-01
   6.659  0.664E-01  0.664E-01
   6.669  0.631E-01  0.631E-01
   6.679  0.595E-01  0.595E-01
   6.689  0.559E-01  0.559E-01
   6.699  0.523E-01  0.523E-01
   6.709  0.490E-01  0.490E-01
   6.719  0.460E-01  0.460E-01
   6.729  0.436E-01  0.436E-01
   6.739  0.419E-01  0.419E-01
   6.749  0.409E-01  0.409E-01
   6.759  0.408E-01  0.408E-01
   6.769  0.416E-01  0.416E-01
   6.779  0.434E-01  0.434E-01
   6.789  0.462E-01  0.462E-01
   6.799  0.499E-01  0.499E-01
   6.809  0.546E-01  0.546E-01
   6.819  0.602E-01  0.602E-01
   6.829  0.665E-01  0.665E-01
   6.839  0.735E-01  0.735E-01
   6.849  0.808E-01  0.808E-01
   6.859  0.885E-01  0.885E-01
   6.869  0.961E-01  0.961E-01
   6.879  0.104E+00  0.104E+00
   6.889  0.111E+00  0.111E+00
   6.899  0.117E+00  0.117E+00
   6.909  0.123E+00  0.123E+00
   6.919  0.127E+00  0.127E+00
   6.929  0.131E+00  0.131E+00
   6.939  0.133E+00  0.133E+00
   6.949  0.133E+00  0.133E+00
   6.959  0.132E+00  0.132E+00
   6.969  0.130E+00  0.130E+00
   6.979  0.127E+00  0.127E+00
   6.989  0.122E+00  0.122E+00
   6.999  0.116E+00  0.116E+00
   7.009  0.110E+00  0.110E+00
   7.019  0.102E+00  0.102E+00
   7.029  0.943E-01  0.943E-01
   7.039  0.861E-01  0.861E-01
   7.049  0.778E-01  0.778E-01
   7.059  0.696E-01  0.696E-01
   7.069  0.616E-01  0.616E-01
   7.079  0.541E-01  0.541E-01
   7.089  0.471E-01  0.471E-01
   7.099  0.407E-01  0.407E-01
   7.109  0.350E-01  0.350E-01
   7.119  0.301E-01  0.301E-01
   7.129  0.260E-01  0.260E-01
   7.139  0.226E-01  0.226E-01
   7.149  0.200E-01  0.200E-01
   7.159  0.182E-01  0.182E-01
   7.169  0.172E-01  0.172E-01
   7.179  0.169E-01  0.169E-01
   7.189  0.173E-01  0.173E-01
   7.199  0.184E-01  0.184E-01
   7.209  0.202E-01  0.202E-01
   7.219  0.225E-01  0.225E-01
   7.229  0.255E-01  0.255E-01
   7.239  0.291E-01  0.291E-01
   7.249  0.331E-01  0.331E-01
   7.259  0.376E-01  0.376E-01
   7.269  0.425E-01  0.425E-01
   7.279  0.478E-01  0.478E-01
   7.289  0.534E-01  0.534E-01
   7.299  0.591E-01  0.591E-01
   7.309  0.650E-01  0.650E-01
   7.319  0.709E-01  0.709E-01
   7.329  0.768E-01  0.768E-01
   7.339  0.826E-01  0.826E-01
   7.349  0.882E-01  0.882E-01
   7.359  0.935E-01  0.935E-01
   7.369  0.985E-01  0.985E-01
   7.379  0.103E+00  0.103E+00
   7.389  0.108E+00  0.108E+00
   7.399  0.111E+00  0.111E+00
   7.409  0.115E+00  0.115E+00
   7.419  0.118E+00  0.118E+00
   7.429  0.121E+00  0.121E+00
   7.439  0.124E+00  0.124E+00
   7.449  0.127E+00  0.127E+00
   7.459  0.129E+00  0.129E+00
   7.469  0.131E+00  0.131E+00
   7.479  0.133E+00  0.133E+00
   7.489  0.135E+00  0.135E+00
   7.499  0.137E+00  0.137E+00
   7.509  0.139E+00  0.139E+00
   7.519  0.140E+00  0.140E+00
   7.529  0.141E+00  0.141E+00
   7.539  0.142E+00  0.142E+00
   7.549  0.142E+00  0.142E+00
   7.559  0.142E+00  0.142E+00
   7.569  0.141E+00  0.141E+00
   7.579  0.140E+00  0.140E+00
   7.589  0.138E+00  0.138E+00
   7.599  0.136E+00  0.136E+00
   7.609  0.132E+00  0.132E+00
   7.619  0.129E+00  0.129E+00
   7.629  0.125E+00  0.125E+00
   7.639  0.121E+00  0.121E+00
   7.649  0.117E+00  0.117E+00
   7.659  0.114E+00  0.114E+00
   7.669  0.111E+00  0.111E+00
   7.679  0.108E+00  0.108E+00
   7.689  0.107E+00  0.107E+00
   7.699  0.106E+00  0.106E+00
   7.709  0.107E+00  0.107E+00
   7.719  0.109E+00  0.109E+00
   7.729  0.113E+00  0.113E+00
   7.739  0.119E+00  0.119E+00
   7.749  0.125E+00  0.125E+00
   7.759  0.133E+00  0.133E+00
   7.769  0.143E+00  0.143E+00
   7.779  0.153E+00  0.153E+00
   7.789  0.164E+00  0.164E+00
   7.799  0.175E+00  0.175E+00
   7.809  0.187E+00  0.187E+00
   7.819  0.198E+00  0.198E+00
   7.829  0.208E+00  0.208E+00
   7.839  0.217E+00  0.217E+00
   7.849  0.225E+00  0.225E+00
   7.859  0.232E+00  0.232E+00
   7.869  0.236E+00  0.236E+00
   7.879  0.239E+00  0.239E+00
   7.889  0.239E+00  0.239E+00
   7.899  0.237E+00  0.237E+00
   7.909  0.233E+00  0.233E+00
   7.919  0.227E+00  0.227E+00
   7.929  0.219E+00  0.219E+00
   7.939  0.210E+00  0.210E+00
   7.949  0.199E+00  0.199E+00
   7.959  0.188E+00  0.188E+00
   7.969  0.175E+00  0.175E+00
   7.979  0.163E+00  0.163E+00
   7.989  0.150E+00  0.150E+00
   7.999  0.137E+00  0.137E+00
   8.009  0.126E+00  0.126E+00
   8.019  0.115E+00  0.115E+00
   8.029  0.105E+00  0.105E+00
   8.039  0.964E-01  0.964E-01
   8.049  0.892E-01  0.892E-01
   8.059  0.836E-01  0.836E-01
   8.069  0.794E-01  0.794E-01
   8.079  0.768E-01  0.768E-01
   8.089  0.757E-01  0.757E-01
   8.099  0.759E-01  0.759E-01
   8.109  0.775E-01  0.775E-01
   8.119  0.802E-01  0.802E-01
   8.129  0.840E-01  0.840E-01
   8.139  0.887E-01  0.887E-01
   8.149  0.941E-01  0.941E-01
   8.159  0.100E+00  0.100E+00
   8.169  0.107E+00  0.107E+00
   8.179  0.113E+00  0.113E+00
   8.189  0.120E+00  0.120E+00
   8.199  0.127E+00  0.127E+00
   8.209  0.134E+00  0.134E+00
   8.219  0.140E+00  0.140E+00
   8.229  0.146E+00  0.146E+00
   8.239  0.151E+00  0.151E+00
   8.249  0.155E+00  0.155E+00
   8.259  0.159E+00  0.159E+00
   8.269  0.162E+00  0.162E+00
   8.279  0.163E+00  0.163E+00
   8.289  0.164E+00  0.164E+00
   8.299  0.163E+00  0.163E+00
   8.309  0.161E+00  0.161E+00
   8.319  0.158E+00  0.158E+00
   8.329  0.155E+00  0.155E+00
   8.339  0.150E+00  0.150E+00
   8.349  0.145E+00  0.145E+00
   8.359  0.139E+00  0.139E+00
   8.369  0.133E+00  0.133E+00
   8.379  0.126E+00  0.126E+00
   8.389  0.120E+00  0.120E+00
   8.399  0.115E+00  0.115E+00
   8.409  0.110E+00  0.110E+00
   8.419  0.107E+00  0.107E+00
   8.429  0.104E+00  0.104E+00
   8.439  0.103E+00  0.103E+00
   8.449  0.103E+00  0.103E+00
   8.459  0.106E+00  0.106E+00
   8.469  0.109E+00  0.109E+00
   8.479  0.115E+00  0.115E+00
   8.489  0.121E+00  0.121E+00
   8.499  0.130E+00  0.130E+00
   8.509  0.139E+00  0.139E+00
   8.519  0.150E+00  0.150E+00
   8.529  0.161E+00  0.161E+00
   8.539  0.172E+00  0.172E+00
   8.549  0.184E+00  0.184E+00
   8.559  0.195E+00  0.195E+00
   8.569  0.206E+00  0.206E+00
   8.579  0.216E+00  0.216E+00
   8.589  0.224E+00  0.224E+00
   8.599  0.232E+00  0.232E+00
   8.609  0.237E+00  0.237E+00
   8.619  0.241E+00  0.241E+00
   8.629  0.244E+00  0.244E+00
   8.639  0.244E+00  0.244E+00
   8.649  0.243E+00  0.243E+00
   8.659  0.241E+00  0.241E+00
   8.669  0.237E+00  0.237E+00
   8.679  0.231E+00  0.231E+00
   8.689  0.225E+00  0.225E+00
   8.699  0.218E+00  0.218E+00
   8.709  0.210E+00  0.210E+00
   8.719  0.201E+00  0.201E+00
   8.729  0.193E+00  0.193E+00
   8.739  0.184E+00  0.184E+00
   8.749  0.175E+00  0.175E+00
   8.759  0.167E+00  0.167E+00
   8.769  0.159E+00  0.159E+00
   8.779  0.151E+00  0.151E+00
   8.789  0.144E+00  0.144E+00
   8.799  0.138E+00  0.138E+00
   8.809  0.131E+00  0.131E+00
   8.819  0.126E+00  0.126E+00
   8.829  0.121E+00  0.121E+00
   8.839  0.116E+00  0.116E+00
   8.849  0.112E+00  0.112E+00
   8.859  0.107E+00  0.107E+00
   8.869  0.104E+00  0.104E+00
   8.879  0.998E-01  0.998E-01
   8.889  0.961E-01  0.961E-01
   8.899  0.924E-01  0.924E-01
   8.909  0.887E-01  0.887E-01
   8.919  0.849E-01  0.849E-01
   8.929  0.811E-01  0.811E-01
   8.939  0.773E-01  0.773E-01
   8.949  0.734E-01  0.734E-01
   8.959  0.695E-01  0.695E-01
   8.969  0.657E-01  0.657E-01
   8.979  0.619E-01  0.619E-01
   8.989  0.581E-01  0.581E-01
   8.999  0.546E-01  0.546E-01
   9.009  0.511E-01  0.511E-01
   9.019  0.479E-01  0.479E-01
   9.029  0.448E-01  0.448E-01
   9.039  0.419E-01  0.419E-01
   9.049  0.393E-01  0.393E-01
   9.059  0.369E-01  0.369E-01
   9.069  0.347E-01  0.347E-01
   9.079  0.328E-01  0.328E-01
   9.089  0.311E-01  0.311E-01
   9.099  0.296E-01  0.296E-01
   9.109  0.283E-01  0.283E-01
   9.119  0.273E-01  0.273E-01
   9.129  0.265E-01  0.265E-01
   9.139  0.260E-01  0.260E-01
   9.149  0.257E-01  0.257E-01
   9.159  0.257E-01  0.257E-01
   9.169  0.261E-01  0.261E-01
   9.179  0.267E-01  0.267E-01
   9.189  0.278E-01  0.278E-01
   9.199  0.292E-01  0.292E-01
   9.209  0.311E-01  0.311E-01
   9.219  0.334E-01  0.334E-01
   9.229  0.362E-01  0.362E-01
   9.239  0.395E-01  0.395E-01
   9.249  0.434E-01  0.434E-01
   9.259  0.478E-01  0.478E-01
   9.269  0.528E-01  0.528E-01
   9.279  0.583E-01  0.583E-01
   9.289  0.644E-01  0.644E-01
   9.299  0.709E-01  0.709E-01
   9.309  0.778E-01  0.778E-01
   9.319  0.850E-01  0.850E-01
   9.329  0.923E-01  0.923E-01
   9.339  0.997E-01  0.997E-01
   9.349  0.107E+00  0.107E+00
   9.359  0.114E+00  0.114E+00
   9.369  0.121E+00  0.121E+00
   9.379  0.127E+00  0.127E+00
   9.389  0.132E+00  0.132E+00
   9.399  0.136E+00  0.136E+00
   9.409  0.140E+00  0.140E+00
   9.419  0.143E+00  0.143E+00
   9.429  0.145E+00  0.145E+00
   9.439  0.146E+00  0.146E+00
   9.449  0.146E+00  0.146E+00
   9.459  0.145E+00  0.145E+00
   9.469  0.143E+00  0.143E+00
   9.479  0.141E+00  0.141E+00
   9.489  0.139E+00  0.139E+00
   9.499  0.136E+00  0.136E+00
   9.509  0.133E+00  0.133E+00
   9.519  0.130E+00  0.130E+00
   9.529  0.126E+00  0.126E+00
   9.539  0.123E+00  0.123E+00
   9.549  0.119E+00  0.119E+00
   9.559  0.116E+00  0.116E+00
   9.569  0.113E+00  0.113E+00
   9.579  0.110E+00  0.110E+00
   9.589  0.107E+00  0.107E+00
   9.599  0.104E+00  0.104E+00
   9.609  0.101E+00  0.101E+00
   9.619  0.983E-01  0.983E-01
   9.629  0.957E-01  0.957E-01
   9.639  0.932E-01  0.932E-01
   9.649  0.909E-01  0.909E-01
   9.659  0.889E-01  0.889E-01
   9.669  0.871E-01  0.871E-01
   9.679  0.858E-01  0.858E-01
   9.689  0.851E-01  0.851E-01
   9.699  0.849E-01  0.849E-01
   9.709  0.855E-01  0.855E-01
   9.719  0.869E-01  0.869E-01
   9.729  0.893E-01  0.893E-01
   9.739  0.928E-01  0.928E-01
   9.749  0.976E-01  0.976E-01
   9.759  0.104E+00  0.104E+00
   9.769  0.111E+00  0.111E+00
   9.779  0.120E+00  0.120E+00
   9.789  0.130E+00  0.130E+00
   9.799  0.142E+00  0.142E+00
   9.809  0.154E+00  0.154E+00
   9.819  0.169E+00  0.169E+00
   9.829  0.184E+00  0.184E+00
   9.839  0.200E+00  0.200E+00
   9.849  0.216E+00  0.216E+00
   9.859  0.233E+00  0.233E+00
   9.869  0.250E+00  0.250E+00
   9.879  0.266E+00  0.266E+00
   9.889  0.282E+00  0.282E+00
   9.899  0.297E+00  0.297E+00
   9.909  0.311E+00  0.311E+00
   9.919  0.323E+00  0.323E+00
   9.929  0.333E+00  0.333E+00
   9.939  0.342E+00  0.342E+00
   9.949  0.348E+00  0.348E+00
   9.959  0.353E+00  0.353E+00
   9.969  0.355E+00  0.355E+00
   9.979  0.355E+00  0.355E+00
   9.989  0.353E+00  0.353E+00
   9.999  0.350E+00  0.350E+00
  10.009  0.344E+00  0.344E+00
  10.019  0.337E+00  0.337E+00
  10.029  0.329E+00  0.329E+00
  10.039  0.319E+00  0.319E+00
  10.049  0.308E+00  0.308E+00
  10.059  0.296E+00  0.296E+00
  10.069  0.283E+00  0.283E+00
  10.079  0.269E+00  0.269E+00
  10.089  0.255E+00  0.255E+00
  10.099  0.240E+00  0.240E+00
  10.109  0.225E+00  0.225E+00
  10.119  0.210E+00  0.210E+00
  10.129  0.195E+00  0.195E+00
  10.139  0.179E+00  0.179E+00
  10.149  0.164E+00  0.164E+00
  10.159  0.149E+00  0.149E+00
  10.169  0.135E+00  0.135E+00
  10.179  0.121E+00  0.121E+00
  10.189  0.109E+00  0.109E+00
  10.199  0.964E-01  0.964E-01
  10.209  0.852E-01  0.852E-01
  10.219  0.750E-01  0.750E-01
  10.229  0.658E-01  0.658E-01
  10.239  0.577E-01  0.577E-01
  10.249  0.506E-01  0.506E-01
  10.259  0.446E-01  0.446E-01
  10.269  0.396E-01  0.396E-01
  10.279  0.355E-01  0.355E-01
  10.289  0.322E-01  0.322E-01
  10.299  0.297E-01  0.297E-01
  10.309  0.279E-01  0.279E-01
  10.319  0.267E-01  0.267E-01
  10.329  0.259E-01  0.259E-01
  10.339  0.254E-01  0.254E-01
  10.349  0.251E-01  0.251E-01
  10.359  0.251E-01  0.251E-01
  10.369  0.250E-01  0.250E-01
  10.379  0.250E-01  0.250E-01
  10.389  0.249E-01  0.249E-01
  10.399  0.247E-01  0.247E-01
  10.409  0.243E-01  0.243E-01
  10.419  0.237E-01  0.237E-01
  10.429  0.230E-01  0.230E-01
  10.439  0.220E-01  0.220E-01
  10.449  0.210E-01  0.210E-01
  10.459  0.197E-01  0.197E-01
  10.469  0.184E-01  0.184E-01
  10.479  0.170E-01  0.170E-01
  10.489  0.155E-01  0.155E-01
  10.499  0.140E-01  0.140E-01
  10.509  0.125E-01  0.125E-01
  10.519  0.110E-01  0.110E-01
  10.529  0.965E-02  0.965E-02
  10.539  0.835E-02  0.835E-02
  10.549  0.715E-02  0.715E-02
  10.559  0.606E-02  0.606E-02
  10.569  0.507E-02  0.507E-02
  10.579  0.421E-02  0.421E-02
  10.589  0.345E-02  0.345E-02
  10.599  0.280E-02  0.280E-02
  10.609  0.224E-02  0.224E-02
  10.619  0.178E-02  0.178E-02
  10.629  0.140E-02  0.140E-02
  10.639  0.109E-02  0.109E-02
  10.649  0.835E-03  0.835E-03
  10.659  0.635E-03  0.635E-03
  10.669  0.477E-03  0.477E-03
  10.679  0.355E-03  0.355E-03
  10.689  0.261E-03  0.261E-03
  10.699  0.190E-03  0.190E-03
  10.709  0.137E-03  0.137E-03
  10.719  0.979E-04  0.979E-04
  10.729  0.693E-04  0.693E-04
  10.739  0.487E-04  0.487E-04
  10.749  0.343E-04  0.343E-04
  10.759  0.245E-04  0.245E-04
  10.769  0.182E-04  0.182E-04
  10.779  0.149E-04  0.149E-04
  10.789  0.142E-04  0.142E-04
  10.799  0.160E-04  0.160E-04
  10.809  0.206E-04  0.206E-04
  10.819  0.288E-04  0.288E-04
  10.829  0.417E-04  0.417E-04
  10.839  0.610E-04  0.610E-04
  10.849  0.891E-04  0.891E-04
  10.859  0.129E-03  0.129E-03
  10.869  0.186E-03  0.186E-03
  10.879  0.264E-03  0.264E-03
  10.889  0.372E-03  0.372E-03
  10.899  0.519E-03  0.519E-03
  10.909  0.715E-03  0.715E-03
  10.919  0.975E-03  0.975E-03
  10.929  0.132E-02  0.132E-02
  10.939  0.176E-02  0.176E-02
  10.949  0.232E-02  0.232E-02
  10.959  0.303E-02  0.303E-02
  10.969  0.391E-02  0.391E-02
  10.979  0.500E-02  0.500E-02
  10.989  0.632E-02  0.632E-02
  10.999  0.790E-02  0.790E-02
  11.009  0.978E-02  0.978E-02
  11.019  0.120E-01  0.120E-01
  11.029  0.145E-01  0.145E-01
  11.039  0.174E-01  0.174E-01
  11.049  0.206E-01  0.206E-01
  11.059  0.241E-01  0.241E-01
  11.069  0.280E-01  0.280E-01
  11.079  0.321E-01  0.321E-01
  11.089  0.364E-01  0.364E-01
  11.099  0.409E-01  0.409E-01
  11.109  0.454E-01  0.454E-01
  11.119  0.499E-01  0.499E-01
  11.129  0.543E-01  0.543E-01
  11.139  0.584E-01  0.584E-01
  11.149  0.622E-01  0.622E-01
  11.159  0.656E-01  0.656E-01
  11.169  0.684E-01  0.684E-01
  11.179  0.706E-01  0.706E-01
  11.189  0.721E-01  0.721E-01
  11.199  0.729E-01  0.729E-01
  11.209  0.731E-01  0.731E-01
  11.219  0.726E-01  0.726E-01
  11.229  0.716E-01  0.716E-01
  11.239  0.700E-01  0.700E-01
  11.249  0.679E-01  0.679E-01
  11.259  0.656E-01  0.656E-01
  11.269  0.631E-01  0.631E-01
  11.279  0.605E-01  0.605E-01
  11.289  0.580E-01  0.580E-01
  11.299  0.557E-01  0.557E-01
  11.309  0.537E-01  0.537E-01
  11.319  0.521E-01  0.521E-01
  11.329  0.510E-01  0.510E-01
  11.339  0.504E-01  0.504E-01
  11.349  0.502E-01  0.502E-01
  11.359  0.506E-01  0.506E-01
  11.369  0.514E-01  0.514E-01
  11.379  0.526E-01  0.526E-01
  11.389  0.541E-01  0.541E-01
  11.399  0.557E-01  0.557E-01
  11.409  0.575E-01  0.575E-01
  11.419  0.592E-01  0.592E-01
  11.429  0.607E-01  0.607E-01
  11.439  0.621E-01  0.621E-01
  11.449  0.630E-01  0.630E-01
  11.459  0.636E-01  0.636E-01
  11.469  0.637E-01  0.637E-01
  11.479  0.634E-01  0.634E-01
  11.489  0.626E-01  0.626E-01
  11.499  0.613E-01  0.613E-01
  11.509  0.596E-01  0.596E-01
  11.519  0.575E-01  0.575E-01
  11.529  0.551E-01  0.551E-01
  11.539  0.524E-01  0.524E-01
  11.549  0.496E-01  0.496E-01
  11.559  0.468E-01  0.468E-01
  11.569  0.439E-01  0.439E-01
  11.579  0.410E-01  0.410E-01
  11.589  0.383E-01  0.383E-01
  11.599  0.357E-01  0.357E-01
  11.609  0.332E-01  0.332E-01
  11.619  0.310E-01  0.310E-01
  11.629  0.289E-01  0.289E-01
  11.639  0.270E-01  0.270E-01
  11.649  0.252E-01  0.252E-01
  11.659  0.236E-01  0.236E-01
  11.669  0.221E-01  0.221E-01
  11.679  0.208E-01  0.208E-01
  11.689  0.196E-01  0.196E-01
  11.699  0.185E-01  0.185E-01
  11.709  0.175E-01  0.175E-01
  11.719  0.167E-01  0.167E-01
  11.729  0.160E-01  0.160E-01
  11.739  0.155E-01  0.155E-01
  11.749  0.151E-01  0.151E-01
  11.759  0.150E-01  0.150E-01
  11.769  0.150E-01  0.150E-01
  11.779  0.153E-01  0.153E-01
  11.789  0.159E-01  0.159E-01
  11.799  0.167E-01  0.167E-01
  11.809  0.177E-01  0.177E-01
  11.819  0.190E-01  0.190E-01
  11.829  0.205E-01  0.205E-01
  11.839  0.222E-01  0.222E-01
  11.849  0.241E-01  0.241E-01
  11.859  0.260E-01  0.260E-01
  11.869  0.280E-01  0.280E-01
  11.879  0.300E-01  0.300E-01
  11.889  0.318E-01  0.318E-01
  11.899  0.336E-01  0.336E-01
  11.909  0.351E-01  0.351E-01
  11.919  0.364E-01  0.364E-01
  11.929  0.374E-01  0.374E-01
  11.939  0.380E-01  0.380E-01
  11.949  0.383E-01  0.383E-01
  11.959  0.383E-01  0.383E-01
  11.969  0.379E-01  0.379E-01
  11.979  0.372E-01  0.372E-01
  11.989  0.363E-01  0.363E-01
  11.999  0.351E-01  0.351E-01
  12.009  0.338E-01  0.338E-01
  12.019  0.325E-01  0.325E-01
  12.029  0.312E-01  0.312E-01
  12.039  0.301E-01  0.301E-01
  12.049  0.292E-01  0.292E-01
  12.059  0.286E-01  0.286E-01
  12.069  0.284E-01  0.284E-01
  12.079  0.288E-01  0.288E-01
  12.089  0.297E-01  0.297E-01
  12.099  0.313E-01  0.313E-01
  12.109  0.336E-01  0.336E-01
  12.119  0.365E-01  0.365E-01
  12.129  0.403E-01  0.403E-01
  12.139  0.447E-01  0.447E-01
  12.149  0.499E-01  0.499E-01
  12.159  0.557E-01  0.557E-01
  12.169  0.622E-01  0.622E-01
  12.179  0.691E-01  0.691E-01
  12.189  0.765E-01  0.765E-01
  12.199  0.842E-01  0.842E-01
  12.209  0.920E-01  0.920E-01
  12.219  0.999E-01  0.999E-01
  12.229  0.108E+00  0.108E+00
  12.239  0.115E+00  0.115E+00
  12.249  0.122E+00  0.122E+00
  12.259  0.128E+00  0.128E+00
  12.269  0.134E+00  0.134E+00
  12.279  0.138E+00  0.138E+00
  12.289  0.142E+00  0.142E+00
  12.299  0.144E+00  0.144E+00
  12.309  0.146E+00  0.146E+00
  12.319  0.146E+00  0.146E+00
  12.329  0.145E+00  0.145E+00
  12.339  0.142E+00  0.142E+00
  12.349  0.139E+00  0.139E+00
  12.359  0.135E+00  0.135E+00
  12.369  0.129E+00  0.129E+00
  12.379  0.124E+00  0.124E+00
  12.389  0.117E+00  0.117E+00
  12.399  0.111E+00  0.111E+00
  12.409  0.104E+00  0.104E+00
  12.419  0.970E-01  0.970E-01
  12.429  0.905E-01  0.905E-01
  12.439  0.844E-01  0.844E-01
  12.449  0.788E-01  0.788E-01
  12.459  0.738E-01  0.738E-01
  12.469  0.695E-01  0.695E-01
  12.479  0.659E-01  0.659E-01
  12.489  0.630E-01  0.630E-01
  12.499  0.607E-01  0.607E-01
  12.509  0.591E-01  0.591E-01
  12.519  0.580E-01  0.580E-01
  12.529  0.573E-01  0.573E-01
  12.539  0.570E-01  0.570E-01
  12.549  0.568E-01  0.568E-01
  12.559  0.567E-01  0.567E-01
  12.569  0.566E-01  0.566E-01
  12.579  0.564E-01  0.564E-01
  12.589  0.559E-01  0.559E-01
  12.599  0.552E-01  0.552E-01
  12.609  0.542E-01  0.542E-01
  12.619  0.529E-01  0.529E-01
  12.629  0.513E-01  0.513E-01
  12.639  0.494E-01  0.494E-01
  12.649  0.474E-01  0.474E-01
  12.659  0.452E-01  0.452E-01
  12.669  0.430E-01  0.430E-01
  12.679  0.408E-01  0.408E-01
  12.689  0.388E-01  0.388E-01
  12.699  0.370E-01  0.370E-01
  12.709  0.356E-01  0.356E-01
  12.719  0.346E-01  0.346E-01
  12.729  0.340E-01  0.340E-01
  12.739  0.340E-01  0.340E-01
  12.749  0.345E-01  0.345E-01
  12.759  0.355E-01  0.355E-01
  12.769  0.370E-01  0.370E-01
  12.779  0.391E-01  0.391E-01
  12.789  0.415E-01  0.415E-01
  12.799  0.444E-01  0.444E-01
  12.809  0.475E-01  0.475E-01
  12.819  0.509E-01  0.509E-01
  12.829  0.544E-01  0.544E-01
  12.839  0.579E-01  0.579E-01
  12.849  0.614E-01  0.614E-01
  12.859  0.649E-01  0.649E-01
  12.869  0.681E-01  0.681E-01
  12.879  0.712E-01  0.712E-01
  12.889  0.741E-01  0.741E-01
  12.899  0.768E-01  0.768E-01
  12.909  0.793E-01  0.793E-01
  12.919  0.816E-01  0.816E-01
  12.929  0.838E-01  0.838E-01
  12.939  0.858E-01  0.858E-01
  12.949  0.878E-01  0.878E-01
  12.959  0.898E-01  0.898E-01
  12.969  0.917E-01  0.917E-01
  12.979  0.936E-01  0.936E-01
  12.989  0.955E-01  0.955E-01
  12.999  0.973E-01  0.973E-01
  13.009  0.990E-01  0.990E-01
  13.019  0.101E+00  0.101E+00
  13.029  0.102E+00  0.102E+00
  13.039  0.103E+00  0.103E+00
  13.049  0.104E+00  0.104E+00
  13.059  0.104E+00  0.104E+00
  13.069  0.104E+00  0.104E+00
  13.079  0.104E+00  0.104E+00
  13.089  0.103E+00  0.103E+00
  13.099  0.101E+00  0.101E+00
  13.109  0.994E-01  0.994E-01
  13.119  0.972E-01  0.972E-01
  13.129  0.947E-01  0.947E-01
  13.139  0.920E-01  0.920E-01
  13.149  0.893E-01  0.893E-01
  13.159  0.865E-01  0.865E-01
  13.169  0.838E-01  0.838E-01
  13.179  0.813E-01  0.813E-01
  13.189  0.789E-01  0.789E-01
  13.199  0.768E-01  0.768E-01
  13.209  0.749E-01  0.749E-01
  13.219  0.731E-01  0.731E-01
  13.229  0.716E-01  0.716E-01
  13.239  0.702E-01  0.702E-01
  13.249  0.688E-01  0.688E-01
  13.259  0.675E-01  0.675E-01
  13.269  0.660E-01  0.660E-01
  13.279  0.645E-01  0.645E-01
  13.289  0.627E-01  0.627E-01
  13.299  0.608E-01  0.608E-01
  13.309  0.585E-01  0.585E-01
  13.319  0.561E-01  0.561E-01
  13.329  0.534E-01  0.534E-01
  13.339  0.505E-01  0.505E-01
  13.349  0.475E-01  0.475E-01
  13.359  0.444E-01  0.444E-01
  13.369  0.412E-01  0.412E-01
  13.379  0.381E-01  0.381E-01
  13.389  0.351E-01  0.351E-01
  13.399  0.322E-01  0.322E-01
  13.409  0.296E-01  0.296E-01
  13.419  0.272E-01  0.272E-01
  13.429  0.251E-01  0.251E-01
  13.439  0.233E-01  0.233E-01
  13.449  0.219E-01  0.219E-01
  13.459  0.208E-01  0.208E-01
  13.469  0.200E-01  0.200E-01
  13.479  0.195E-01  0.195E-01
  13.489  0.194E-01  0.194E-01
  13.499  0.194E-01  0.194E-01
  13.509  0.197E-01  0.197E-01
  13.519  0.200E-01  0.200E-01
  13.529  0.205E-01  0.205E-01
  13.539  0.211E-01  0.211E-01
  13.549  0.216E-01  0.216E-01
  13.559  0.221E-01  0.221E-01
  13.569  0.225E-01  0.225E-01
  13.579  0.227E-01  0.227E-01
  13.589  0.228E-01  0.228E-01
  13.599  0.228E-01  0.228E-01
  13.609  0.225E-01  0.225E-01
  13.619  0.220E-01  0.220E-01
  13.629  0.214E-01  0.214E-01
  13.639  0.206E-01  0.206E-01
  13.649  0.196E-01  0.196E-01
  13.659  0.184E-01  0.184E-01
  13.669  0.172E-01  0.172E-01
  13.679  0.159E-01  0.159E-01
  13.689  0.145E-01  0.145E-01
  13.699  0.131E-01  0.131E-01
  13.709  0.117E-01  0.117E-01
  13.719  0.104E-01  0.104E-01
  13.729  0.907E-02  0.907E-02
  13.739  0.786E-02  0.786E-02
  13.749  0.674E-02  0.674E-02
  13.759  0.571E-02  0.571E-02
  13.769  0.479E-02  0.479E-02
  13.779  0.398E-02  0.398E-02
  13.789  0.327E-02  0.327E-02
  13.799  0.265E-02  0.265E-02
  13.809  0.213E-02  0.213E-02
  13.819  0.170E-02  0.170E-02
  13.829  0.133E-02  0.133E-02
  13.839  0.104E-02  0.104E-02
  13.849  0.799E-03  0.799E-03
  13.859  0.608E-03  0.608E-03
  13.869  0.458E-03  0.458E-03
  13.879  0.341E-03  0.341E-03
  13.889  0.252E-03  0.252E-03
  13.899  0.184E-03  0.184E-03
  13.909  0.132E-03  0.132E-03
  13.919  0.945E-04  0.945E-04
  13.929  0.668E-04  0.668E-04
  13.939  0.466E-04  0.466E-04
  13.949  0.322E-04  0.322E-04
  13.959  0.220E-04  0.220E-04
  13.969  0.149E-04  0.149E-04
  13.979  0.996E-05  0.996E-05
  13.989  0.659E-05  0.659E-05
  13.999  0.432E-05  0.432E-05
  14.009  0.280E-05  0.280E-05
  14.019  0.179E-05  0.179E-05
  14.029  0.114E-05  0.114E-05
  14.039  0.712E-06  0.712E-06
  14.049  0.442E-06  0.442E-06
  14.059  0.271E-06  0.271E-06
  14.069  0.164E-06  0.164E-06
  14.079  0.987E-07  0.987E-07
  14.089  0.587E-07  0.587E-07
  14.099  0.345E-07  0.345E-07
  14.109  0.200E-07  0.200E-07
  14.119  0.115E-07  0.115E-07
  14.129  0.656E-08  0.656E-08
  14.139  0.369E-08  0.369E-08
  14.149  0.205E-08  0.205E-08
  14.159  0.113E-08  0.113E-08
  14.169  0.616E-09  0.616E-09
  14.179  0.332E-09  0.332E-09
  14.189  0.177E-09  0.177E-09
  14.199  0.934E-10  0.934E-10
  14.209  0.487E-10  0.487E-10
  14.219  0.252E-10  0.252E-10
  14.229  0.128E-10  0.128E-10
  14.239  0.649E-11  0.649E-11
  14.249  0.324E-11  0.324E-11
  14.259  0.160E-11  0.160E-11
  14.269  0.784E-12  0.784E-12
  14.279  0.379E-12  0.379E-12
  14.289  0.182E-12  0.182E-12
  14.299  0.000E+00  0.000E+00
  14.309  0.000E+00  0.000E+00
  14.319  0.000E+00  0.000E+00
  14.329  0.000E+00  0.000E+00
  14.339  0.000E+00  0.000E+00
  14.349  0.000E+00  0.000E+00
  14.359  0.000E+00  0.000E+00
  14.369  0.000E+00  0.000E+00
  14.379  0.000E+00  0.000E+00
  14.389  0.000E+00  0.000E+00
  14.399  0.000E+00  0.000E+00
  14.409  0.000E+00  0.000E+00
  14.419  0.000E+00  0.000E+00
  14.429  0.000E+00  0.000E+00
  14.439  0.000E+00  0.000E+00
  14.449  0.000E+00  0.000E+00
  14.459  0.000E+00  0.000E+00
  14.469  0.000E+00  0.000E+00
  14.479  0.000E+00  0.000E+00
  14.489  0.000E+00  0.000E+00
  14.499  0.000E+00  0.000E+00
  14.509  0.000E+00  0.000E+00
  14.519  0.000E+00  0.000E+00
  14.529  0.000E+00  0.000E+00
  14.539  0.000E+00  0.000E+00
  14.549  0.000E+00  0.000E+00
  14.559  0.000E+00  0.000E+00
  14.569  0.000E+00  0.000E+00
  14.579  0.000E+00  0.000E+00
  14.589  0.000E+00  0.000E+00
  14.599  0.000E+00  0.000E+00
  14.609  0.000E+00  0.000E+00
  14.619  0.000E+00  0.000E+00
  14.629  0.000E+00  0.000E+00
  14.639  0.000E+00  0.000E+00
  14.649  0.000E+00  0.000E+00
  14.659  0.000E+00  0.000E+00
  14.669  0.000E+00  0.000E+00
  14.679  0.000E+00  0.000E+00
  14.689  0.000E+00  0.000E+00
  14.699  0.000E+00  0.000E+00
  14.709  0.000E+00  0.000E+00
  14.719  0.000E+00  0.000E+00
  14.729  0.000E+00  0.000E+00
  14.739  0.000E+00  0.000E+00
  14.749  0.000E+00  0.000E+00
  14.759  0.000E+00  0.000E+00
  14.769  0.000E+00  0.000E+00
  14.779  0.000E+00  0.000E+00
  14.789  0.000E+00  0.000E+00
  14.799  0.000E+00  0.000E+00
  14.809  0.000E+00  0.000E+00
  14.819  0.000E+00  0.000E+00
  14.829  0.000E+00  0.000E+00
  14.839  0.000E+00  0.000E+00
  14.849  0.000E+00  0.000E+00
  14.859  0.000E+00  0.000E+00
  14.869  0.000E+00  0.000E+00
  14.879  0.000E+00  0.000E+00
  14.889  0.000E+00  0.000E+00
  14.899  0.000E+00  0.000E+00
  14.909  0.000E+00  0.000E+00
  14.919  0.000E+00  0.000E+00
  14.929  0.000E+00  0.000E+00
  14.939  0.000E+00  0.000E+00
  14.949  0.000E+00  0.000E+00
  14.959  0.000E+00  0.000E+00
  14.969  0.000E+00  0.000E+00
  14.979  0.000E+00  0.000E+00
  14.989  0.000E+00  0.000E+00
  14.999  0.000E+00  0.000E+00
  15.009  0.000E+00  0.000E+00
  15.019  0.000E+00  0.000E+00
  15.029  0.000E+00  0.000E+00
  15.039  0.000E+00  0.000E+00
  15.049  0.000E+00  0.000E+00
  15.059  0.000E+00  0.000E+00
  15.069  0.000E+00  0.000E+00
  15.079  0.000E+00  0.000E+00
  15.089  0.000E+00  0.000E+00
  15.099  0.000E+00  0.000E+00
  15.109  0.000E+00  0.000E+00
  15.119  0.000E+00  0.000E+00
  15.129  0.000E+00  0.000E+00
  15.139  0.000E+00  0.000E+00
  15.149  0.000E+00  0.000E+00
  15.159  0.888E-21  0.888E-21
  15.169  0.187E-20  0.187E-20
  15.179  0.388E-20  0.388E-20
  15.189  0.797E-20  0.797E-20
  15.199  0.162E-19  0.162E-19
  15.209  0.326E-19  0.326E-19
  15.219  0.648E-19  0.648E-19
  15.229  0.128E-18  0.128E-18
  15.239  0.248E-18  0.248E-18
  15.249  0.478E-18  0.478E-18
  15.259  0.912E-18  0.912E-18
  15.269  0.172E-17  0.172E-17
  15.279  0.320E-17  0.320E-17
  15.289  0.591E-17  0.591E-17
  15.299  0.108E-16  0.108E-16
  15.309  0.195E-16  0.195E-16
  15.319  0.348E-16  0.348E-16
  15.329  0.614E-16  0.614E-16
  15.339  0.107E-15  0.107E-15
  15.349  0.186E-15  0.186E-15
  15.359  0.318E-15  0.318E-15
  15.369  0.537E-15  0.537E-15
  15.379  0.899E-15  0.899E-15
  15.389  0.149E-14  0.149E-14
  15.399  0.244E-14  0.244E-14
  15.409  0.395E-14  0.395E-14
  15.419  0.634E-14  0.634E-14
  15.429  0.100E-13  0.100E-13
  15.439  0.158E-13  0.158E-13
  15.449  0.245E-13  0.245E-13
  15.459  0.376E-13  0.376E-13
  15.469  0.570E-13  0.570E-13
  15.479  0.857E-13  0.857E-13
  15.489  0.127E-12  0.127E-12
  15.499  0.187E-12  0.187E-12
  15.509  0.272E-12  0.272E-12
  15.519  0.392E-12  0.392E-12
  15.529  0.558E-12  0.558E-12
  15.539  0.785E-12  0.785E-12
  15.549  0.109E-11  0.109E-11
  15.559  0.151E-11  0.151E-11
  15.569  0.205E-11  0.205E-11
  15.579  0.277E-11  0.277E-11
  15.589  0.370E-11  0.370E-11
  15.599  0.488E-11  0.488E-11
  15.609  0.637E-11  0.637E-11
  15.619  0.822E-11  0.822E-11
  15.629  0.105E-10  0.105E-10
  15.639  0.133E-10  0.133E-10
  15.649  0.166E-10  0.166E-10
  15.659  0.205E-10  0.205E-10
  15.669  0.251E-10  0.251E-10
  15.679  0.304E-10  0.304E-10
  15.689  0.364E-10  0.364E-10
  15.699  0.431E-10  0.431E-10
  15.709  0.506E-10  0.506E-10
  15.719  0.586E-10  0.586E-10
  15.729  0.672E-10  0.672E-10
  15.739  0.762E-10  0.762E-10
  15.749  0.856E-10  0.856E-10
  15.759  0.950E-10  0.950E-10
  15.769  0.104E-09  0.104E-09
  15.779  0.113E-09  0.113E-09
  15.789  0.122E-09  0.122E-09
  15.799  0.130E-09  0.130E-09
  15.809  0.136E-09  0.136E-09
  15.819  0.142E-09  0.142E-09
  15.829  0.146E-09  0.146E-09
  15.839  0.149E-09  0.149E-09
  15.849  0.150E-09  0.150E-09
  15.859  0.149E-09  0.149E-09
  15.869  0.147E-09  0.147E-09
  15.879  0.143E-09  0.143E-09
  15.889  0.138E-09  0.138E-09
  15.899  0.132E-09  0.132E-09
  15.909  0.125E-09  0.125E-09
  15.919  0.116E-09  0.116E-09
  15.929  0.108E-09  0.108E-09
  15.939  0.983E-10  0.983E-10
  15.949  0.889E-10  0.889E-10
  15.959  0.795E-10  0.795E-10
  15.969  0.703E-10  0.703E-10
  15.979  0.616E-10  0.616E-10
  15.989  0.533E-10  0.533E-10
  15.999  0.457E-10  0.457E-10
  16.009  0.387E-10  0.387E-10
  16.019  0.324E-10  0.324E-10
  16.029  0.269E-10  0.269E-10
  16.039  0.221E-10  0.221E-10
  16.049  0.179E-10  0.179E-10
  16.059  0.144E-10  0.144E-10
  16.069  0.114E-10  0.114E-10
  16.079  0.898E-11  0.898E-11
  16.089  0.698E-11  0.698E-11
  16.099  0.536E-11  0.536E-11
  16.109  0.408E-11  0.408E-11
  16.119  0.307E-11  0.307E-11
  16.129  0.229E-11  0.229E-11
  16.139  0.168E-11  0.168E-11
  16.149  0.123E-11  0.123E-11
  16.159  0.883E-12  0.883E-12
  16.169  0.630E-12  0.630E-12
  16.179  0.444E-12  0.444E-12
  16.189  0.310E-12  0.310E-12
  16.199  0.214E-12  0.214E-12
  16.209  0.146E-12  0.146E-12
  16.219  0.986E-13  0.986E-13
  16.229  0.659E-13  0.659E-13
  16.239  0.435E-13  0.435E-13
  16.249  0.285E-13  0.285E-13
  16.259  0.184E-13  0.184E-13
