# E (eV)   ldos(E)   pdos(E)    pdos(E)    pdos(E)   
  -5.873  0.000E+00  0.000E+00  0.000E+00  0.000E+00
  -5.863  0.617E-06  0.206E-06  0.206E-06  0.206E-06
  -5.853  0.493E-05  0.164E-05  0.164E-05  0.164E-05
  -5.843  0.167E-04  0.555E-05  0.555E-05  0.555E-05
  -5.833  0.395E-04  0.132E-04  0.132E-04  0.132E-04
  -5.823  0.771E-04  0.257E-04  0.257E-04  0.257E-04
  -5.813  0.133E-03  0.444E-04  0.444E-04  0.444E-04
  -5.803  0.212E-03  0.705E-04  0.705E-04  0.705E-04
  -5.793  0.316E-03  0.105E-03  0.105E-03  0.105E-03
  -5.783  0.450E-03  0.150E-03  0.150E-03  0.150E-03
  -5.773  0.617E-03  0.206E-03  0.206E-03  0.206E-03
  -5.763  0.821E-03  0.274E-03  0.274E-03  0.274E-03
  -5.753  0.107E-02  0.355E-03  0.355E-03  0.355E-03
  -5.743  0.136E-02  0.452E-03  0.452E-03  0.452E-03
  -5.733  0.169E-02  0.564E-03  0.564E-03  0.564E-03
  -5.723  0.208E-02  0.694E-03  0.694E-03  0.694E-03
  -5.713  0.253E-02  0.842E-03  0.842E-03  0.842E-03
  -5.703  0.303E-02  0.101E-02  0.101E-02  0.101E-02
  -5.693  0.360E-02  0.120E-02  0.120E-02  0.120E-02
  -5.683  0.423E-02  0.141E-02  0.141E-02  0.141E-02
  -5.673  0.493E-02  0.164E-02  0.164E-02  0.164E-02
  -5.663  0.571E-02  0.190E-02  0.190E-02  0.190E-02
  -5.653  0.657E-02  0.219E-02  0.219E-02  0.219E-02
  -5.643  0.751E-02  0.250E-02  0.250E-02  0.250E-02
  -5.633  0.853E-02  0.284E-02  0.284E-02  0.284E-02
  -5.623  0.964E-02  0.321E-02  0.321E-02  0.321E-02
  -5.613  0.108E-01  0.361E-02  0.361E-02  0.361E-02
  -5.603  0.111E-01  0.370E-02  0.370E-02  0.370E-02
  -5.593  0.111E-01  0.369E-02  0.369E-02  0.369E-02
  -5.583  0.111E-01  0.369E-02  0.369E-02  0.369E-02
  -5.573  0.111E-01  0.369E-02  0.369E-02  0.369E-02
  -5.563  0.112E-01  0.372E-02  0.372E-02  0.372E-02
  -5.553  0.113E-01  0.376E-02  0.376E-02  0.376E-02
  -5.543  0.115E-01  0.382E-02  0.382E-02  0.382E-02
  -5.533  0.117E-01  0.391E-02  0.391E-02  0.391E-02
  -5.523  0.121E-01  0.403E-02  0.403E-02  0.403E-02
  -5.513  0.125E-01  0.417E-02  0.417E-02  0.417E-02
  -5.503  0.129E-01  0.431E-02  0.431E-02  0.431E-02
  -5.493  0.133E-01  0.445E-02  0.445E-02  0.445E-02
  -5.483  0.138E-01  0.459E-02  0.459E-02  0.459E-02
  -5.473  0.142E-01  0.474E-02  0.474E-02  0.474E-02
  -5.463  0.147E-01  0.488E-02  0.488E-02  0.488E-02
  -5.453  0.151E-01  0.504E-02  0.504E-02  0.504E-02
  -5.443  0.156E-01  0.519E-02  0.519E-02  0.519E-02
  -5.433  0.160E-01  0.534E-02  0.534E-02  0.534E-02
  -5.423  0.165E-01  0.550E-02  0.550E-02  0.550E-02
  -5.413  0.170E-01  0.566E-02  0.566E-02  0.566E-02
  -5.403  0.175E-01  0.582E-02  0.582E-02  0.582E-02
  -5.393  0.180E-01  0.599E-02  0.599E-02  0.599E-02
  -5.383  0.185E-01  0.615E-02  0.615E-02  0.615E-02
  -5.373  0.190E-01  0.632E-02  0.632E-02  0.632E-02
  -5.363  0.195E-01  0.649E-02  0.649E-02  0.649E-02
  -5.353  0.200E-01  0.667E-02  0.667E-02  0.667E-02
  -5.343  0.205E-01  0.684E-02  0.684E-02  0.684E-02
  -5.333  0.211E-01  0.702E-02  0.702E-02  0.702E-02
  -5.323  0.216E-01  0.720E-02  0.720E-02  0.720E-02
  -5.313  0.222E-01  0.739E-02  0.739E-02  0.739E-02
  -5.303  0.227E-01  0.757E-02  0.757E-02  0.757E-02
  -5.293  0.233E-01  0.776E-02  0.776E-02  0.776E-02
  -5.283  0.239E-01  0.795E-02  0.795E-02  0.795E-02
  -5.273  0.244E-01  0.815E-02  0.815E-02  0.815E-02
  -5.263  0.250E-01  0.835E-02  0.835E-02  0.835E-02
  -5.253  0.256E-01  0.855E-02  0.855E-02  0.855E-02
  -5.243  0.262E-01  0.875E-02  0.875E-02  0.875E-02
  -5.233  0.269E-01  0.895E-02  0.895E-02  0.895E-02
  -5.223  0.275E-01  0.916E-02  0.916E-02  0.916E-02
  -5.213  0.281E-01  0.937E-02  0.937E-02  0.937E-02
  -5.203  0.288E-01  0.959E-02  0.959E-02  0.959E-02
  -5.193  0.294E-01  0.980E-02  0.980E-02  0.980E-02
  -5.183  0.301E-01  0.100E-01  0.100E-01  0.100E-01
  -5.173  0.307E-01  0.102E-01  0.102E-01  0.102E-01
  -5.163  0.314E-01  0.105E-01  0.105E-01  0.105E-01
  -5.153  0.320E-01  0.107E-01  0.107E-01  0.107E-01
  -5.143  0.327E-01  0.109E-01  0.109E-01  0.109E-01
  -5.133  0.333E-01  0.111E-01  0.111E-01  0.111E-01
  -5.123  0.339E-01  0.113E-01  0.113E-01  0.113E-01
  -5.113  0.345E-01  0.115E-01  0.115E-01  0.115E-01
  -5.103  0.351E-01  0.117E-01  0.117E-01  0.117E-01
  -5.093  0.357E-01  0.119E-01  0.119E-01  0.119E-01
  -5.083  0.363E-01  0.121E-01  0.121E-01  0.121E-01
  -5.073  0.368E-01  0.123E-01  0.123E-01  0.123E-01
  -5.063  0.374E-01  0.125E-01  0.125E-01  0.125E-01
  -5.053  0.379E-01  0.126E-01  0.126E-01  0.126E-01
  -5.043  0.384E-01  0.128E-01  0.128E-01  0.128E-01
  -5.033  0.389E-01  0.130E-01  0.130E-01  0.130E-01
  -5.023  0.394E-01  0.131E-01  0.131E-01  0.131E-01
  -5.013  0.398E-01  0.133E-01  0.133E-01  0.133E-01
  -5.003  0.403E-01  0.134E-01  0.134E-01  0.134E-01
  -4.993  0.407E-01  0.136E-01  0.136E-01  0.136E-01
  -4.983  0.411E-01  0.137E-01  0.137E-01  0.137E-01
  -4.973  0.415E-01  0.138E-01  0.138E-01  0.138E-01
  -4.963  0.418E-01  0.139E-01  0.139E-01  0.139E-01
  -4.953  0.422E-01  0.141E-01  0.141E-01  0.141E-01
  -4.943  0.425E-01  0.142E-01  0.142E-01  0.142E-01
  -4.933  0.428E-01  0.143E-01  0.143E-01  0.143E-01
  -4.923  0.431E-01  0.144E-01  0.144E-01  0.144E-01
  -4.913  0.434E-01  0.145E-01  0.145E-01  0.145E-01
  -4.903  0.438E-01  0.146E-01  0.146E-01  0.146E-01
  -4.893  0.442E-01  0.147E-01  0.147E-01  0.147E-01
  -4.883  0.446E-01  0.149E-01  0.149E-01  0.149E-01
  -4.873  0.450E-01  0.150E-01  0.150E-01  0.150E-01
  -4.863  0.455E-01  0.152E-01  0.152E-01  0.152E-01
  -4.853  0.460E-01  0.153E-01  0.153E-01  0.153E-01
  -4.843  0.464E-01  0.155E-01  0.155E-01  0.155E-01
  -4.833  0.469E-01  0.156E-01  0.156E-01  0.156E-01
  -4.823  0.474E-01  0.158E-01  0.158E-01  0.158E-01
  -4.813  0.479E-01  0.160E-01  0.160E-01  0.160E-01
  -4.803  0.484E-01  0.161E-01  0.161E-01  0.161E-01
  -4.793  0.489E-01  0.163E-01  0.163E-01  0.163E-01
  -4.783  0.494E-01  0.165E-01  0.165E-01  0.165E-01
  -4.773  0.499E-01  0.166E-01  0.166E-01  0.166E-01
  -4.763  0.503E-01  0.168E-01  0.168E-01  0.168E-01
  -4.753  0.508E-01  0.169E-01  0.169E-01  0.169E-01
  -4.743  0.513E-01  0.171E-01  0.171E-01  0.171E-01
  -4.733  0.518E-01  0.173E-01  0.173E-01  0.173E-01
  -4.723  0.523E-01  0.174E-01  0.174E-01  0.174E-01
  -4.713  0.528E-01  0.176E-01  0.176E-01  0.176E-01
  -4.703  0.533E-01  0.178E-01  0.178E-01  0.178E-01
  -4.693  0.538E-01  0.179E-01  0.179E-01  0.179E-01
  -4.683  0.543E-01  0.181E-01  0.181E-01  0.181E-01
  -4.673  0.548E-01  0.183E-01  0.183E-01  0.183E-01
  -4.663  0.553E-01  0.184E-01  0.184E-01  0.184E-01
  -4.653  0.558E-01  0.186E-01  0.186E-01  0.186E-01
  -4.643  0.564E-01  0.188E-01  0.188E-01  0.188E-01
  -4.633  0.569E-01  0.190E-01  0.190E-01  0.190E-01
  -4.623  0.574E-01  0.191E-01  0.191E-01  0.191E-01
  -4.613  0.579E-01  0.193E-01  0.193E-01  0.193E-01
  -4.603  0.584E-01  0.195E-01  0.195E-01  0.195E-01
  -4.593  0.589E-01  0.196E-01  0.196E-01  0.196E-01
  -4.583  0.594E-01  0.198E-01  0.198E-01  0.198E-01
  -4.573  0.600E-01  0.200E-01  0.200E-01  0.200E-01
  -4.563  0.605E-01  0.202E-01  0.202E-01  0.202E-01
  -4.553  0.610E-01  0.203E-01  0.203E-01  0.203E-01
  -4.543  0.615E-01  0.205E-01  0.205E-01  0.205E-01
  -4.533  0.621E-01  0.207E-01  0.207E-01  0.207E-01
  -4.523  0.626E-01  0.209E-01  0.209E-01  0.209E-01
  -4.513  0.631E-01  0.210E-01  0.210E-01  0.210E-01
  -4.503  0.636E-01  0.212E-01  0.212E-01  0.212E-01
  -4.493  0.642E-01  0.214E-01  0.214E-01  0.214E-01
  -4.483  0.647E-01  0.216E-01  0.216E-01  0.216E-01
  -4.473  0.653E-01  0.218E-01  0.218E-01  0.218E-01
  -4.463  0.658E-01  0.219E-01  0.219E-01  0.219E-01
  -4.453  0.663E-01  0.221E-01  0.221E-01  0.221E-01
  -4.443  0.669E-01  0.223E-01  0.223E-01  0.223E-01
  -4.433  0.674E-01  0.225E-01  0.225E-01  0.225E-01
  -4.423  0.680E-01  0.227E-01  0.227E-01  0.227E-01
  -4.413  0.685E-01  0.228E-01  0.228E-01  0.228E-01
  -4.403  0.691E-01  0.230E-01  0.230E-01  0.230E-01
  -4.393  0.696E-01  0.232E-01  0.232E-01  0.232E-01
  -4.383  0.702E-01  0.234E-01  0.234E-01  0.234E-01
  -4.373  0.707E-01  0.236E-01  0.236E-01  0.236E-01
  -4.363  0.713E-01  0.238E-01  0.238E-01  0.238E-01
  -4.353  0.718E-01  0.239E-01  0.239E-01  0.239E-01
  -4.343  0.724E-01  0.241E-01  0.241E-01  0.241E-01
  -4.333  0.730E-01  0.243E-01  0.243E-01  0.243E-01
  -4.323  0.735E-01  0.245E-01  0.245E-01  0.245E-01
  -4.313  0.741E-01  0.247E-01  0.247E-01  0.247E-01
  -4.303  0.747E-01  0.249E-01  0.249E-01  0.249E-01
  -4.293  0.753E-01  0.251E-01  0.251E-01  0.251E-01
  -4.283  0.757E-01  0.252E-01  0.252E-01  0.252E-01
  -4.273  0.761E-01  0.254E-01  0.254E-01  0.254E-01
  -4.263  0.766E-01  0.255E-01  0.255E-01  0.255E-01
  -4.253  0.771E-01  0.257E-01  0.257E-01  0.257E-01
  -4.243  0.775E-01  0.258E-01  0.258E-01  0.258E-01
  -4.233  0.780E-01  0.260E-01  0.260E-01  0.260E-01
  -4.223  0.785E-01  0.262E-01  0.262E-01  0.262E-01
  -4.213  0.790E-01  0.263E-01  0.263E-01  0.263E-01
  -4.203  0.796E-01  0.265E-01  0.265E-01  0.265E-01
  -4.193  0.801E-01  0.267E-01  0.267E-01  0.267E-01
  -4.183  0.807E-01  0.269E-01  0.269E-01  0.269E-01
  -4.173  0.813E-01  0.271E-01  0.271E-01  0.271E-01
  -4.163  0.819E-01  0.273E-01  0.273E-01  0.273E-01
  -4.153  0.825E-01  0.275E-01  0.275E-01  0.275E-01
  -4.143  0.831E-01  0.277E-01  0.277E-01  0.277E-01
  -4.133  0.837E-01  0.279E-01  0.279E-01  0.279E-01
  -4.123  0.843E-01  0.281E-01  0.281E-01  0.281E-01
  -4.113  0.849E-01  0.283E-01  0.283E-01  0.283E-01
  -4.103  0.855E-01  0.285E-01  0.285E-01  0.285E-01
  -4.093  0.861E-01  0.287E-01  0.287E-01  0.287E-01
  -4.083  0.867E-01  0.289E-01  0.289E-01  0.289E-01
  -4.073  0.873E-01  0.291E-01  0.291E-01  0.291E-01
  -4.063  0.880E-01  0.293E-01  0.293E-01  0.293E-01
  -4.053  0.886E-01  0.295E-01  0.295E-01  0.295E-01
  -4.043  0.892E-01  0.297E-01  0.297E-01  0.297E-01
  -4.033  0.899E-01  0.300E-01  0.300E-01  0.300E-01
  -4.023  0.905E-01  0.302E-01  0.302E-01  0.302E-01
  -4.013  0.912E-01  0.304E-01  0.304E-01  0.304E-01
  -4.003  0.918E-01  0.306E-01  0.306E-01  0.306E-01
  -3.993  0.925E-01  0.308E-01  0.308E-01  0.308E-01
  -3.983  0.931E-01  0.310E-01  0.310E-01  0.310E-01
  -3.973  0.938E-01  0.313E-01  0.313E-01  0.313E-01
  -3.963  0.944E-01  0.315E-01  0.315E-01  0.315E-01
  -3.953  0.951E-01  0.317E-01  0.317E-01  0.317E-01
  -3.943  0.958E-01  0.319E-01  0.319E-01  0.319E-01
  -3.933  0.965E-01  0.322E-01  0.322E-01  0.322E-01
  -3.923  0.971E-01  0.324E-01  0.324E-01  0.324E-01
  -3.913  0.979E-01  0.326E-01  0.326E-01  0.326E-01
  -3.903  0.986E-01  0.329E-01  0.329E-01  0.329E-01
  -3.893  0.995E-01  0.332E-01  0.332E-01  0.332E-01
  -3.883  0.100E+00  0.335E-01  0.335E-01  0.335E-01
  -3.873  0.101E+00  0.338E-01  0.338E-01  0.338E-01
  -3.863  0.102E+00  0.341E-01  0.341E-01  0.341E-01
  -3.853  0.103E+00  0.344E-01  0.344E-01  0.344E-01
  -3.843  0.104E+00  0.348E-01  0.348E-01  0.348E-01
  -3.833  0.105E+00  0.352E-01  0.352E-01  0.352E-01
  -3.823  0.107E+00  0.356E-01  0.356E-01  0.356E-01
  -3.813  0.109E+00  0.363E-01  0.363E-01  0.363E-01
  -3.803  0.111E+00  0.369E-01  0.369E-01  0.369E-01
  -3.793  0.113E+00  0.376E-01  0.376E-01  0.376E-01
  -3.783  0.114E+00  0.381E-01  0.381E-01  0.381E-01
  -3.773  0.116E+00  0.387E-01  0.387E-01  0.387E-01
  -3.763  0.118E+00  0.393E-01  0.393E-01  0.393E-01
  -3.753  0.119E+00  0.398E-01  0.398E-01  0.398E-01
  -3.743  0.121E+00  0.403E-01  0.403E-01  0.403E-01
  -3.733  0.122E+00  0.407E-01  0.407E-01  0.407E-01
  -3.723  0.124E+00  0.412E-01  0.412E-01  0.412E-01
  -3.713  0.125E+00  0.416E-01  0.416E-01  0.416E-01
  -3.703  0.126E+00  0.420E-01  0.420E-01  0.420E-01
  -3.693  0.127E+00  0.424E-01  0.424E-01  0.424E-01
  -3.683  0.128E+00  0.428E-01  0.428E-01  0.428E-01
  -3.673  0.129E+00  0.431E-01  0.431E-01  0.431E-01
  -3.663  0.130E+00  0.434E-01  0.434E-01  0.434E-01
  -3.653  0.131E+00  0.437E-01  0.437E-01  0.437E-01
  -3.643  0.132E+00  0.440E-01  0.440E-01  0.440E-01
  -3.633  0.133E+00  0.442E-01  0.442E-01  0.442E-01
  -3.623  0.133E+00  0.444E-01  0.444E-01  0.444E-01
  -3.613  0.134E+00  0.446E-01  0.446E-01  0.446E-01
  -3.603  0.134E+00  0.448E-01  0.448E-01  0.448E-01
  -3.593  0.135E+00  0.450E-01  0.450E-01  0.450E-01
  -3.583  0.135E+00  0.451E-01  0.451E-01  0.451E-01
  -3.573  0.136E+00  0.452E-01  0.452E-01  0.452E-01
  -3.563  0.136E+00  0.453E-01  0.453E-01  0.453E-01
  -3.553  0.136E+00  0.454E-01  0.454E-01  0.454E-01
  -3.543  0.136E+00  0.454E-01  0.454E-01  0.454E-01
  -3.533  0.136E+00  0.454E-01  0.454E-01  0.454E-01
  -3.523  0.136E+00  0.454E-01  0.454E-01  0.454E-01
  -3.513  0.136E+00  0.454E-01  0.454E-01  0.454E-01
  -3.503  0.136E+00  0.453E-01  0.453E-01  0.453E-01
  -3.493  0.136E+00  0.452E-01  0.452E-01  0.452E-01
  -3.483  0.135E+00  0.451E-01  0.451E-01  0.451E-01
  -3.473  0.135E+00  0.450E-01  0.450E-01  0.450E-01
  -3.463  0.134E+00  0.448E-01  0.448E-01  0.448E-01
  -3.453  0.134E+00  0.446E-01  0.446E-01  0.446E-01
  -3.443  0.133E+00  0.444E-01  0.444E-01  0.444E-01
  -3.433  0.133E+00  0.442E-01  0.442E-01  0.442E-01
  -3.423  0.132E+00  0.440E-01  0.440E-01  0.440E-01
  -3.413  0.131E+00  0.437E-01  0.437E-01  0.437E-01
  -3.403  0.130E+00  0.434E-01  0.434E-01  0.434E-01
  -3.393  0.129E+00  0.431E-01  0.431E-01  0.431E-01
  -3.383  0.128E+00  0.427E-01  0.427E-01  0.427E-01
  -3.373  0.127E+00  0.424E-01  0.424E-01  0.424E-01
  -3.363  0.129E+00  0.431E-01  0.431E-01  0.431E-01
  -3.353  0.131E+00  0.437E-01  0.437E-01  0.437E-01
  -3.343  0.133E+00  0.444E-01  0.444E-01  0.444E-01
  -3.333  0.135E+00  0.451E-01  0.451E-01  0.451E-01
  -3.323  0.137E+00  0.458E-01  0.458E-01  0.458E-01
  -3.313  0.139E+00  0.464E-01  0.464E-01  0.464E-01
  -3.303  0.141E+00  0.470E-01  0.470E-01  0.470E-01
  -3.293  0.143E+00  0.475E-01  0.475E-01  0.475E-01
  -3.283  0.144E+00  0.480E-01  0.480E-01  0.480E-01
  -3.273  0.145E+00  0.484E-01  0.484E-01  0.484E-01
  -3.263  0.146E+00  0.487E-01  0.487E-01  0.487E-01
  -3.253  0.147E+00  0.489E-01  0.489E-01  0.489E-01
  -3.243  0.147E+00  0.490E-01  0.490E-01  0.490E-01
  -3.233  0.147E+00  0.491E-01  0.491E-01  0.491E-01
  -3.223  0.147E+00  0.491E-01  0.491E-01  0.491E-01
  -3.213  0.147E+00  0.490E-01  0.490E-01  0.490E-01
  -3.203  0.146E+00  0.488E-01  0.488E-01  0.488E-01
  -3.193  0.146E+00  0.485E-01  0.485E-01  0.485E-01
  -3.183  0.144E+00  0.482E-01  0.482E-01  0.482E-01
  -3.173  0.143E+00  0.477E-01  0.477E-01  0.477E-01
  -3.163  0.141E+00  0.471E-01  0.471E-01  0.471E-01
  -3.153  0.139E+00  0.465E-01  0.465E-01  0.465E-01
  -3.143  0.138E+00  0.461E-01  0.461E-01  0.461E-01
  -3.133  0.137E+00  0.458E-01  0.458E-01  0.458E-01
  -3.123  0.137E+00  0.455E-01  0.455E-01  0.455E-01
  -3.113  0.136E+00  0.452E-01  0.452E-01  0.452E-01
  -3.103  0.135E+00  0.450E-01  0.450E-01  0.450E-01
  -3.093  0.134E+00  0.447E-01  0.447E-01  0.447E-01
  -3.083  0.133E+00  0.444E-01  0.444E-01  0.444E-01
  -3.073  0.133E+00  0.442E-01  0.442E-01  0.442E-01
  -3.063  0.132E+00  0.439E-01  0.439E-01  0.439E-01
  -3.053  0.131E+00  0.437E-01  0.437E-01  0.437E-01
  -3.043  0.130E+00  0.434E-01  0.434E-01  0.434E-01
  -3.033  0.130E+00  0.432E-01  0.432E-01  0.432E-01
  -3.023  0.129E+00  0.430E-01  0.430E-01  0.430E-01
  -3.013  0.128E+00  0.427E-01  0.427E-01  0.427E-01
  -3.003  0.128E+00  0.425E-01  0.425E-01  0.425E-01
  -2.993  0.127E+00  0.423E-01  0.423E-01  0.423E-01
  -2.983  0.126E+00  0.421E-01  0.421E-01  0.421E-01
  -2.973  0.126E+00  0.419E-01  0.419E-01  0.419E-01
  -2.963  0.125E+00  0.417E-01  0.417E-01  0.417E-01
  -2.953  0.124E+00  0.415E-01  0.415E-01  0.415E-01
  -2.943  0.124E+00  0.413E-01  0.413E-01  0.413E-01
  -2.933  0.123E+00  0.411E-01  0.411E-01  0.411E-01
  -2.923  0.123E+00  0.409E-01  0.409E-01  0.409E-01
  -2.913  0.122E+00  0.408E-01  0.408E-01  0.408E-01
  -2.903  0.122E+00  0.406E-01  0.406E-01  0.406E-01
  -2.893  0.121E+00  0.404E-01  0.404E-01  0.404E-01
  -2.883  0.121E+00  0.403E-01  0.403E-01  0.403E-01
  -2.873  0.120E+00  0.401E-01  0.401E-01  0.401E-01
  -2.863  0.120E+00  0.400E-01  0.400E-01  0.400E-01
  -2.853  0.119E+00  0.398E-01  0.398E-01  0.398E-01
  -2.843  0.119E+00  0.397E-01  0.397E-01  0.397E-01
  -2.833  0.119E+00  0.395E-01  0.395E-01  0.395E-01
  -2.823  0.118E+00  0.394E-01  0.394E-01  0.394E-01
  -2.813  0.118E+00  0.393E-01  0.393E-01  0.393E-01
  -2.803  0.118E+00  0.393E-01  0.393E-01  0.393E-01
  -2.793  0.118E+00  0.392E-01  0.392E-01  0.392E-01
  -2.783  0.118E+00  0.392E-01  0.392E-01  0.392E-01
  -2.773  0.117E+00  0.391E-01  0.391E-01  0.391E-01
  -2.763  0.117E+00  0.391E-01  0.391E-01  0.391E-01
  -2.753  0.117E+00  0.390E-01  0.390E-01  0.390E-01
  -2.743  0.117E+00  0.390E-01  0.390E-01  0.390E-01
  -2.733  0.117E+00  0.390E-01  0.390E-01  0.390E-01
  -2.723  0.117E+00  0.389E-01  0.389E-01  0.389E-01
  -2.713  0.117E+00  0.389E-01  0.389E-01  0.389E-01
  -2.703  0.117E+00  0.389E-01  0.389E-01  0.389E-01
  -2.693  0.117E+00  0.389E-01  0.389E-01  0.389E-01
  -2.683  0.117E+00  0.389E-01  0.389E-01  0.389E-01
  -2.673  0.116E+00  0.388E-01  0.388E-01  0.388E-01
  -2.663  0.116E+00  0.387E-01  0.387E-01  0.387E-01
  -2.653  0.116E+00  0.386E-01  0.386E-01  0.386E-01
  -2.643  0.115E+00  0.385E-01  0.385E-01  0.385E-01
  -2.633  0.115E+00  0.383E-01  0.383E-01  0.383E-01
  -2.623  0.115E+00  0.382E-01  0.382E-01  0.382E-01
  -2.613  0.115E+00  0.382E-01  0.382E-01  0.382E-01
  -2.603  0.116E+00  0.386E-01  0.386E-01  0.386E-01
  -2.593  0.117E+00  0.389E-01  0.389E-01  0.389E-01
  -2.583  0.118E+00  0.393E-01  0.393E-01  0.393E-01
  -2.573  0.119E+00  0.395E-01  0.395E-01  0.395E-01
  -2.563  0.119E+00  0.398E-01  0.398E-01  0.398E-01
  -2.553  0.120E+00  0.400E-01  0.400E-01  0.400E-01
  -2.543  0.121E+00  0.402E-01  0.402E-01  0.402E-01
  -2.533  0.121E+00  0.403E-01  0.403E-01  0.403E-01
  -2.523  0.121E+00  0.404E-01  0.404E-01  0.404E-01
  -2.513  0.122E+00  0.405E-01  0.405E-01  0.405E-01
  -2.503  0.122E+00  0.406E-01  0.406E-01  0.406E-01
  -2.493  0.122E+00  0.406E-01  0.406E-01  0.406E-01
  -2.483  0.122E+00  0.406E-01  0.406E-01  0.406E-01
  -2.473  0.122E+00  0.405E-01  0.405E-01  0.405E-01
  -2.463  0.121E+00  0.404E-01  0.404E-01  0.404E-01
  -2.453  0.121E+00  0.403E-01  0.403E-01  0.403E-01
  -2.443  0.120E+00  0.402E-01  0.402E-01  0.402E-01
  -2.433  0.120E+00  0.400E-01  0.400E-01  0.400E-01
  -2.423  0.119E+00  0.398E-01  0.398E-01  0.398E-01
  -2.413  0.119E+00  0.395E-01  0.395E-01  0.395E-01
  -2.403  0.118E+00  0.392E-01  0.392E-01  0.392E-01
  -2.393  0.117E+00  0.389E-01  0.389E-01  0.389E-01
  -2.383  0.116E+00  0.386E-01  0.386E-01  0.386E-01
  -2.373  0.115E+00  0.382E-01  0.382E-01  0.382E-01
  -2.363  0.113E+00  0.378E-01  0.378E-01  0.378E-01
  -2.353  0.112E+00  0.373E-01  0.373E-01  0.373E-01
  -2.343  0.110E+00  0.368E-01  0.368E-01  0.368E-01
  -2.333  0.109E+00  0.363E-01  0.363E-01  0.363E-01
  -2.323  0.107E+00  0.358E-01  0.358E-01  0.358E-01
  -2.313  0.106E+00  0.352E-01  0.352E-01  0.352E-01
  -2.303  0.104E+00  0.346E-01  0.346E-01  0.346E-01
  -2.293  0.102E+00  0.339E-01  0.339E-01  0.339E-01
  -2.283  0.998E-01  0.333E-01  0.333E-01  0.333E-01
  -2.273  0.977E-01  0.326E-01  0.326E-01  0.326E-01
  -2.263  0.955E-01  0.318E-01  0.318E-01  0.318E-01
  -2.253  0.931E-01  0.310E-01  0.310E-01  0.310E-01
  -2.243  0.907E-01  0.302E-01  0.302E-01  0.302E-01
  -2.233  0.882E-01  0.294E-01  0.294E-01  0.294E-01
  -2.223  0.856E-01  0.285E-01  0.285E-01  0.285E-01
  -2.213  0.829E-01  0.276E-01  0.276E-01  0.276E-01
  -2.203  0.801E-01  0.267E-01  0.267E-01  0.267E-01
  -2.193  0.772E-01  0.257E-01  0.257E-01  0.257E-01
  -2.183  0.458E-01  0.153E-01  0.153E-01  0.153E-01
  -2.173  0.437E-01  0.146E-01  0.146E-01  0.146E-01
  -2.163  0.415E-01  0.138E-01  0.138E-01  0.138E-01
  -2.153  0.395E-01  0.132E-01  0.132E-01  0.132E-01
  -2.143  0.374E-01  0.125E-01  0.125E-01  0.125E-01
  -2.133  0.354E-01  0.118E-01  0.118E-01  0.118E-01
  -2.123  0.335E-01  0.112E-01  0.112E-01  0.112E-01
  -2.113  0.316E-01  0.105E-01  0.105E-01  0.105E-01
  -2.103  0.297E-01  0.990E-02  0.990E-02  0.990E-02
  -2.093  0.279E-01  0.929E-02  0.929E-02  0.929E-02
  -2.083  0.261E-01  0.870E-02  0.870E-02  0.870E-02
  -2.073  0.244E-01  0.812E-02  0.812E-02  0.812E-02
  -2.063  0.227E-01  0.755E-02  0.755E-02  0.755E-02
  -2.053  0.210E-01  0.700E-02  0.700E-02  0.700E-02
  -2.043  0.194E-01  0.647E-02  0.647E-02  0.647E-02
  -2.033  0.179E-01  0.595E-02  0.595E-02  0.595E-02
  -2.023  0.163E-01  0.545E-02  0.545E-02  0.545E-02
  -2.013  0.149E-01  0.496E-02  0.496E-02  0.496E-02
  -2.003  0.135E-01  0.449E-02  0.449E-02  0.449E-02
  -1.993  0.121E-01  0.403E-02  0.403E-02  0.403E-02
  -1.983  0.108E-01  0.359E-02  0.359E-02  0.359E-02
  -1.973  0.949E-02  0.316E-02  0.316E-02  0.316E-02
  -1.963  0.826E-02  0.275E-02  0.275E-02  0.275E-02
  -1.953  0.708E-02  0.236E-02  0.236E-02  0.236E-02
  -1.943  0.594E-02  0.198E-02  0.198E-02  0.198E-02
  -1.933  0.486E-02  0.162E-02  0.162E-02  0.162E-02
  -1.923  0.383E-02  0.128E-02  0.128E-02  0.128E-02
  -1.913  0.284E-02  0.947E-03  0.947E-03  0.947E-03
  -1.903  0.190E-02  0.635E-03  0.635E-03  0.635E-03
  -1.893  0.102E-02  0.339E-03  0.339E-03  0.339E-03
  -1.883  0.182E-03  0.608E-04  0.608E-04  0.608E-04
  -1.873  0.000E+00  0.000E+00  0.000E+00  0.000E+00
  -1.863  0.000E+00  0.000E+00  0.000E+00  0.000E+00
  -1.853  0.000E+00  0.000E+00  0.000E+00  0.000E+00
  -1.843  0.000E+00  0.000E+00  0.000E+00  0.000E+00
  -1.833  0.000E+00  0.000E+00  0.000E+00  0.000E+00
  -1.823  0.000E+00  0.000E+00  0.000E+00  0.000E+00
  -1.813  0.000E+00  0.000E+00  0.000E+00  0.000E+00
  -1.803  0.000E+00  0.000E+00  0.000E+00  0.000E+00
  -1.793  0.000E+00  0.000E+00  0.000E+00  0.000E+00
  -1.783  0.000E+00  0.000E+00  0.000E+00  0.000E+00
  -1.773  0.000E+00  0.000E+00  0.000E+00  0.000E+00
  -1.763  0.000E+00  0.000E+00  0.000E+00  0.000E+00
  -1.753  0.000E+00  0.000E+00  0.000E+00  0.000E+00
  -1.743  0.000E+00  0.000E+00  0.000E+00  0.000E+00
  -1.733  0.000E+00  0.000E+00  0.000E+00  0.000E+00
  -1.723  0.000E+00  0.000E+00  0.000E+00  0.000E+00
  -1.713  0.000E+00  0.000E+00  0.000E+00  0.000E+00
  -1.703  0.000E+00  0.000E+00  0.000E+00  0.000E+00
  -1.693  0.000E+00  0.000E+00  0.000E+00  0.000E+00
  -1.683  0.000E+00  0.000E+00  0.000E+00  0.000E+00
  -1.673  0.000E+00  0.000E+00  0.000E+00  0.000E+00
  -1.663  0.000E+00  0.000E+00  0.000E+00  0.000E+00
  -1.653  0.000E+00  0.000E+00  0.000E+00  0.000E+00
  -1.643  0.000E+00  0.000E+00  0.000E+00  0.000E+00
  -1.633  0.000E+00  0.000E+00  0.000E+00  0.000E+00
  -1.623  0.000E+00  0.000E+00  0.000E+00  0.000E+00
  -1.613  0.000E+00  0.000E+00  0.000E+00  0.000E+00
  -1.603  0.000E+00  0.000E+00  0.000E+00  0.000E+00
  -1.593  0.203E-03  0.677E-04  0.677E-04  0.677E-04
  -1.583  0.988E-03  0.329E-03  0.329E-03  0.329E-03
  -1.573  0.181E-02  0.602E-03  0.602E-03  0.602E-03
  -1.563  0.266E-02  0.885E-03  0.885E-03  0.885E-03
  -1.553  0.354E-02  0.118E-02  0.118E-02  0.118E-02
  -1.543  0.445E-02  0.148E-02  0.148E-02  0.148E-02
  -1.533  0.540E-02  0.180E-02  0.180E-02  0.180E-02
  -1.523  0.638E-02  0.213E-02  0.213E-02  0.213E-02
  -1.513  0.739E-02  0.246E-02  0.246E-02  0.246E-02
  -1.503  0.844E-02  0.281E-02  0.281E-02  0.281E-02
  -1.493  0.951E-02  0.317E-02  0.317E-02  0.317E-02
  -1.483  0.106E-01  0.354E-02  0.354E-02  0.354E-02
  -1.473  0.118E-01  0.392E-02  0.392E-02  0.392E-02
  -1.463  0.130E-01  0.432E-02  0.432E-02  0.432E-02
  -1.453  0.142E-01  0.472E-02  0.472E-02  0.472E-02
  -1.443  0.154E-01  0.514E-02  0.514E-02  0.514E-02
  -1.433  0.167E-01  0.556E-02  0.556E-02  0.556E-02
  -1.423  0.180E-01  0.600E-02  0.600E-02  0.600E-02
  -1.413  0.194E-01  0.645E-02  0.645E-02  0.645E-02
  -1.403  0.207E-01  0.691E-02  0.691E-02  0.691E-02
  -1.393  0.222E-01  0.738E-02  0.738E-02  0.738E-02
  -1.383  0.236E-01  0.787E-02  0.787E-02  0.787E-02
  -1.373  0.251E-01  0.836E-02  0.836E-02  0.836E-02
  -1.363  0.266E-01  0.887E-02  0.887E-02  0.887E-02
  -1.353  0.282E-01  0.939E-02  0.939E-02  0.939E-02
  -1.343  0.298E-01  0.992E-02  0.992E-02  0.992E-02
  -1.333  0.314E-01  0.105E-01  0.105E-01  0.105E-01
  -1.323  0.330E-01  0.110E-01  0.110E-01  0.110E-01
  -1.313  0.347E-01  0.116E-01  0.116E-01  0.116E-01
  -1.303  0.365E-01  0.122E-01  0.122E-01  0.122E-01
  -1.293  0.382E-01  0.127E-01  0.127E-01  0.127E-01
  -1.283  0.401E-01  0.134E-01  0.134E-01  0.134E-01
  -1.273  0.419E-01  0.140E-01  0.140E-01  0.140E-01
  -1.263  0.438E-01  0.146E-01  0.146E-01  0.146E-01
  -1.253  0.457E-01  0.152E-01  0.152E-01  0.152E-01
  -1.243  0.476E-01  0.159E-01  0.159E-01  0.159E-01
  -1.233  0.496E-01  0.165E-01  0.165E-01  0.165E-01
  -1.223  0.516E-01  0.172E-01  0.172E-01  0.172E-01
  -1.213  0.537E-01  0.179E-01  0.179E-01  0.179E-01
  -1.203  0.558E-01  0.186E-01  0.186E-01  0.186E-01
  -1.193  0.579E-01  0.193E-01  0.193E-01  0.193E-01
  -1.183  0.601E-01  0.200E-01  0.200E-01  0.200E-01
  -1.173  0.623E-01  0.208E-01  0.208E-01  0.208E-01
  -1.163  0.646E-01  0.215E-01  0.215E-01  0.215E-01
  -1.153  0.669E-01  0.223E-01  0.223E-01  0.223E-01
  -1.143  0.692E-01  0.231E-01  0.231E-01  0.231E-01
  -1.133  0.715E-01  0.238E-01  0.238E-01  0.238E-01
  -1.123  0.114E+00  0.381E-01  0.381E-01  0.381E-01
  -1.113  0.118E+00  0.395E-01  0.395E-01  0.395E-01
  -1.103  0.123E+00  0.409E-01  0.409E-01  0.409E-01
  -1.093  0.127E+00  0.422E-01  0.422E-01  0.422E-01
  -1.083  0.131E+00  0.435E-01  0.435E-01  0.435E-01
  -1.073  0.134E+00  0.448E-01  0.448E-01  0.448E-01
  -1.063  0.138E+00  0.461E-01  0.461E-01  0.461E-01
  -1.053  0.142E+00  0.473E-01  0.473E-01  0.473E-01
  -1.043  0.146E+00  0.485E-01  0.485E-01  0.485E-01
  -1.033  0.149E+00  0.497E-01  0.497E-01  0.497E-01
  -1.023  0.153E+00  0.509E-01  0.509E-01  0.509E-01
  -1.013  0.156E+00  0.520E-01  0.520E-01  0.520E-01
  -1.003  0.159E+00  0.531E-01  0.531E-01  0.531E-01
  -0.993  0.162E+00  0.541E-01  0.541E-01  0.541E-01
  -0.983  0.166E+00  0.552E-01  0.552E-01  0.552E-01
  -0.973  0.169E+00  0.562E-01  0.562E-01  0.562E-01
  -0.963  0.172E+00  0.572E-01  0.572E-01  0.572E-01
  -0.953  0.174E+00  0.581E-01  0.581E-01  0.581E-01
  -0.943  0.177E+00  0.591E-01  0.591E-01  0.591E-01
  -0.933  0.180E+00  0.600E-01  0.600E-01  0.600E-01
  -0.923  0.183E+00  0.609E-01  0.609E-01  0.609E-01
  -0.913  0.185E+00  0.617E-01  0.617E-01  0.617E-01
  -0.903  0.188E+00  0.625E-01  0.625E-01  0.625E-01
  -0.893  0.190E+00  0.633E-01  0.633E-01  0.633E-01
  -0.883  0.192E+00  0.641E-01  0.641E-01  0.641E-01
  -0.873  0.195E+00  0.648E-01  0.648E-01  0.648E-01
  -0.863  0.197E+00  0.656E-01  0.656E-01  0.656E-01
  -0.853  0.199E+00  0.663E-01  0.663E-01  0.663E-01
  -0.843  0.201E+00  0.669E-01  0.669E-01  0.669E-01
  -0.833  0.203E+00  0.676E-01  0.676E-01  0.676E-01
  -0.823  0.205E+00  0.683E-01  0.683E-01  0.683E-01
  -0.813  0.209E+00  0.696E-01  0.696E-01  0.696E-01
  -0.803  0.215E+00  0.717E-01  0.717E-01  0.717E-01
  -0.793  0.224E+00  0.747E-01  0.747E-01  0.747E-01
  -0.783  0.253E+00  0.844E-01  0.844E-01  0.844E-01
  -0.773  0.282E+00  0.940E-01  0.940E-01  0.940E-01
  -0.763  0.308E+00  0.103E+00  0.103E+00  0.103E+00
  -0.753  0.332E+00  0.111E+00  0.111E+00  0.111E+00
  -0.743  0.354E+00  0.118E+00  0.118E+00  0.118E+00
  -0.733  0.373E+00  0.124E+00  0.124E+00  0.124E+00
  -0.723  0.391E+00  0.130E+00  0.130E+00  0.130E+00
  -0.713  0.408E+00  0.136E+00  0.136E+00  0.136E+00
  -0.703  0.422E+00  0.141E+00  0.141E+00  0.141E+00
  -0.693  0.435E+00  0.145E+00  0.145E+00  0.145E+00
  -0.683  0.445E+00  0.148E+00  0.148E+00  0.148E+00
  -0.673  0.454E+00  0.151E+00  0.151E+00  0.151E+00
  -0.663  0.460E+00  0.153E+00  0.153E+00  0.153E+00
  -0.653  0.464E+00  0.155E+00  0.155E+00  0.155E+00
  -0.643  0.466E+00  0.155E+00  0.155E+00  0.155E+00
  -0.633  0.466E+00  0.155E+00  0.155E+00  0.155E+00
  -0.623  0.464E+00  0.155E+00  0.155E+00  0.155E+00
  -0.613  0.460E+00  0.153E+00  0.153E+00  0.153E+00
  -0.603  0.454E+00  0.151E+00  0.151E+00  0.151E+00
  -0.593  0.446E+00  0.149E+00  0.149E+00  0.149E+00
  -0.583  0.436E+00  0.145E+00  0.145E+00  0.145E+00
  -0.573  0.424E+00  0.141E+00  0.141E+00  0.141E+00
  -0.563  0.416E+00  0.139E+00  0.139E+00  0.139E+00
  -0.553  0.412E+00  0.137E+00  0.137E+00  0.137E+00
  -0.543  0.406E+00  0.135E+00  0.135E+00  0.135E+00
  -0.533  0.399E+00  0.133E+00  0.133E+00  0.133E+00
  -0.523  0.392E+00  0.131E+00  0.131E+00  0.131E+00
  -0.513  0.384E+00  0.128E+00  0.128E+00  0.128E+00
  -0.503  0.375E+00  0.125E+00  0.125E+00  0.125E+00
  -0.493  0.365E+00  0.122E+00  0.122E+00  0.122E+00
  -0.483  0.354E+00  0.118E+00  0.118E+00  0.118E+00
  -0.473  0.343E+00  0.114E+00  0.114E+00  0.114E+00
  -0.463  0.331E+00  0.110E+00  0.110E+00  0.110E+00
  -0.453  0.318E+00  0.106E+00  0.106E+00  0.106E+00
  -0.443  0.304E+00  0.101E+00  0.101E+00  0.101E+00
  -0.433  0.289E+00  0.965E-01  0.965E-01  0.965E-01
  -0.423  0.274E+00  0.914E-01  0.914E-01  0.914E-01
  -0.413  0.266E+00  0.885E-01  0.885E-01  0.885E-01
  -0.403  0.261E+00  0.871E-01  0.871E-01  0.871E-01
  -0.393  0.257E+00  0.858E-01  0.858E-01  0.858E-01
  -0.383  0.253E+00  0.844E-01  0.844E-01  0.844E-01
  -0.373  0.249E+00  0.831E-01  0.831E-01  0.831E-01
  -0.363  0.246E+00  0.819E-01  0.819E-01  0.819E-01
  -0.353  0.242E+00  0.806E-01  0.806E-01  0.806E-01
  -0.343  0.238E+00  0.794E-01  0.794E-01  0.794E-01
  -0.333  0.235E+00  0.782E-01  0.782E-01  0.782E-01
  -0.323  0.231E+00  0.771E-01  0.771E-01  0.771E-01
  -0.313  0.228E+00  0.760E-01  0.760E-01  0.760E-01
  -0.303  0.225E+00  0.749E-01  0.749E-01  0.749E-01
  -0.293  0.221E+00  0.738E-01  0.738E-01  0.738E-01
  -0.283  0.218E+00  0.728E-01  0.728E-01  0.728E-01
  -0.273  0.215E+00  0.718E-01  0.718E-01  0.718E-01
  -0.263  0.212E+00  0.708E-01  0.708E-01  0.708E-01
  -0.253  0.210E+00  0.699E-01  0.699E-01  0.699E-01
  -0.243  0.207E+00  0.689E-01  0.689E-01  0.689E-01
  -0.233  0.204E+00  0.681E-01  0.681E-01  0.681E-01
  -0.223  0.202E+00  0.672E-01  0.672E-01  0.672E-01
  -0.213  0.199E+00  0.664E-01  0.664E-01  0.664E-01
  -0.203  0.197E+00  0.656E-01  0.656E-01  0.656E-01
  -0.193  0.194E+00  0.648E-01  0.648E-01  0.648E-01
  -0.183  0.192E+00  0.641E-01  0.641E-01  0.641E-01
  -0.173  0.190E+00  0.634E-01  0.634E-01  0.634E-01
  -0.163  0.188E+00  0.627E-01  0.627E-01  0.627E-01
  -0.153  0.186E+00  0.621E-01  0.621E-01  0.621E-01
  -0.143  0.184E+00  0.614E-01  0.614E-01  0.614E-01
  -0.133  0.183E+00  0.609E-01  0.609E-01  0.609E-01
  -0.123  0.181E+00  0.603E-01  0.603E-01  0.603E-01
  -0.113  0.179E+00  0.598E-01  0.598E-01  0.598E-01
  -0.103  0.178E+00  0.593E-01  0.593E-01  0.593E-01
  -0.093  0.176E+00  0.588E-01  0.588E-01  0.588E-01
  -0.083  0.175E+00  0.584E-01  0.584E-01  0.584E-01
  -0.073  0.174E+00  0.579E-01  0.579E-01  0.579E-01
  -0.063  0.173E+00  0.575E-01  0.575E-01  0.575E-01
  -0.053  0.171E+00  0.571E-01  0.571E-01  0.571E-01
  -0.043  0.170E+00  0.567E-01  0.567E-01  0.567E-01
  -0.033  0.169E+00  0.563E-01  0.563E-01  0.563E-01
  -0.023  0.168E+00  0.559E-01  0.559E-01  0.559E-01
  -0.013  0.167E+00  0.556E-01  0.556E-01  0.556E-01
  -0.003  0.166E+00  0.552E-01  0.552E-01  0.552E-01
   0.007  0.165E+00  0.548E-01  0.548E-01  0.548E-01
   0.017  0.163E+00  0.545E-01  0.545E-01  0.545E-01
   0.027  0.162E+00  0.541E-01  0.541E-01  0.541E-01
   0.037  0.161E+00  0.538E-01  0.538E-01  0.538E-01
   0.047  0.160E+00  0.535E-01  0.535E-01  0.535E-01
   0.057  0.160E+00  0.532E-01  0.532E-01  0.532E-01
   0.067  0.159E+00  0.529E-01  0.529E-01  0.529E-01
   0.077  0.158E+00  0.526E-01  0.526E-01  0.526E-01
   0.087  0.157E+00  0.523E-01  0.523E-01  0.523E-01
   0.097  0.156E+00  0.520E-01  0.520E-01  0.520E-01
   0.107  0.155E+00  0.517E-01  0.517E-01  0.517E-01
   0.117  0.154E+00  0.514E-01  0.514E-01  0.514E-01
   0.127  0.153E+00  0.511E-01  0.511E-01  0.511E-01
   0.137  0.152E+00  0.508E-01  0.508E-01  0.508E-01
   0.147  0.152E+00  0.505E-01  0.505E-01  0.505E-01
   0.157  0.151E+00  0.502E-01  0.502E-01  0.502E-01
   0.167  0.150E+00  0.499E-01  0.499E-01  0.499E-01
   0.177  0.149E+00  0.497E-01  0.497E-01  0.497E-01
   0.187  0.148E+00  0.494E-01  0.494E-01  0.494E-01
   0.197  0.147E+00  0.491E-01  0.491E-01  0.491E-01
   0.207  0.146E+00  0.488E-01  0.488E-01  0.488E-01
   0.217  0.146E+00  0.485E-01  0.485E-01  0.485E-01
   0.227  0.145E+00  0.483E-01  0.483E-01  0.483E-01
   0.237  0.144E+00  0.480E-01  0.480E-01  0.480E-01
   0.247  0.143E+00  0.477E-01  0.477E-01  0.477E-01
   0.257  0.142E+00  0.475E-01  0.475E-01  0.475E-01
   0.267  0.142E+00  0.472E-01  0.472E-01  0.472E-01
   0.277  0.141E+00  0.470E-01  0.470E-01  0.470E-01
   0.287  0.140E+00  0.467E-01  0.467E-01  0.467E-01
   0.297  0.139E+00  0.464E-01  0.464E-01  0.464E-01
   0.307  0.139E+00  0.462E-01  0.462E-01  0.462E-01
   0.317  0.138E+00  0.459E-01  0.459E-01  0.459E-01
   0.327  0.137E+00  0.457E-01  0.457E-01  0.457E-01
   0.337  0.136E+00  0.454E-01  0.454E-01  0.454E-01
   0.347  0.136E+00  0.452E-01  0.452E-01  0.452E-01
   0.357  0.135E+00  0.449E-01  0.449E-01  0.449E-01
   0.367  0.134E+00  0.447E-01  0.447E-01  0.447E-01
   0.377  0.133E+00  0.444E-01  0.444E-01  0.444E-01
   0.387  0.132E+00  0.442E-01  0.442E-01  0.442E-01
   0.397  0.132E+00  0.439E-01  0.439E-01  0.439E-01
   0.407  0.131E+00  0.437E-01  0.437E-01  0.437E-01
   0.417  0.130E+00  0.434E-01  0.434E-01  0.434E-01
   0.427  0.130E+00  0.432E-01  0.432E-01  0.432E-01
   0.437  0.129E+00  0.429E-01  0.429E-01  0.429E-01
   0.447  0.128E+00  0.427E-01  0.427E-01  0.427E-01
   0.457  0.127E+00  0.425E-01  0.425E-01  0.425E-01
   0.467  0.127E+00  0.422E-01  0.422E-01  0.422E-01
   0.477  0.126E+00  0.420E-01  0.420E-01  0.420E-01
   0.487  0.125E+00  0.418E-01  0.418E-01  0.418E-01
   0.497  0.125E+00  0.415E-01  0.415E-01  0.415E-01
   0.507  0.124E+00  0.413E-01  0.413E-01  0.413E-01
   0.517  0.123E+00  0.411E-01  0.411E-01  0.411E-01
   0.527  0.123E+00  0.409E-01  0.409E-01  0.409E-01
   0.537  0.122E+00  0.406E-01  0.406E-01  0.406E-01
   0.547  0.121E+00  0.404E-01  0.404E-01  0.404E-01
   0.557  0.121E+00  0.402E-01  0.402E-01  0.402E-01
   0.567  0.120E+00  0.400E-01  0.400E-01  0.400E-01
   0.577  0.119E+00  0.398E-01  0.398E-01  0.398E-01
   0.587  0.119E+00  0.395E-01  0.395E-01  0.395E-01
   0.597  0.118E+00  0.393E-01  0.393E-01  0.393E-01
   0.607  0.117E+00  0.391E-01  0.391E-01  0.391E-01
   0.617  0.117E+00  0.389E-01  0.389E-01  0.389E-01
   0.627  0.116E+00  0.387E-01  0.387E-01  0.387E-01
   0.637  0.116E+00  0.385E-01  0.385E-01  0.385E-01
   0.647  0.115E+00  0.383E-01  0.383E-01  0.383E-01
   0.657  0.114E+00  0.381E-01  0.381E-01  0.381E-01
   0.667  0.114E+00  0.379E-01  0.379E-01  0.379E-01
   0.677  0.113E+00  0.377E-01  0.377E-01  0.377E-01
   0.687  0.113E+00  0.375E-01  0.375E-01  0.375E-01
   0.697  0.112E+00  0.373E-01  0.373E-01  0.373E-01
   0.707  0.111E+00  0.371E-01  0.371E-01  0.371E-01
   0.717  0.111E+00  0.369E-01  0.369E-01  0.369E-01
   0.727  0.110E+00  0.368E-01  0.368E-01  0.368E-01
   0.737  0.110E+00  0.366E-01  0.366E-01  0.366E-01
   0.747  0.108E+00  0.361E-01  0.361E-01  0.361E-01
   0.757  0.107E+00  0.356E-01  0.356E-01  0.356E-01
   0.767  0.105E+00  0.351E-01  0.351E-01  0.351E-01
   0.777  0.104E+00  0.347E-01  0.347E-01  0.347E-01
   0.787  0.103E+00  0.342E-01  0.342E-01  0.342E-01
   0.797  0.101E+00  0.338E-01  0.338E-01  0.338E-01
   0.807  0.100E+00  0.334E-01  0.334E-01  0.334E-01
   0.817  0.990E-01  0.330E-01  0.330E-01  0.330E-01
   0.827  0.978E-01  0.326E-01  0.326E-01  0.326E-01
   0.837  0.967E-01  0.322E-01  0.322E-01  0.322E-01
   0.847  0.956E-01  0.319E-01  0.319E-01  0.319E-01
   0.857  0.946E-01  0.315E-01  0.315E-01  0.315E-01
   0.867  0.936E-01  0.312E-01  0.312E-01  0.312E-01
   0.877  0.926E-01  0.309E-01  0.309E-01  0.309E-01
   0.887  0.916E-01  0.305E-01  0.305E-01  0.305E-01
   0.897  0.907E-01  0.302E-01  0.302E-01  0.302E-01
   0.907  0.898E-01  0.299E-01  0.299E-01  0.299E-01
   0.917  0.890E-01  0.297E-01  0.297E-01  0.297E-01
   0.927  0.882E-01  0.294E-01  0.294E-01  0.294E-01
   0.937  0.874E-01  0.291E-01  0.291E-01  0.291E-01
   0.947  0.867E-01  0.289E-01  0.289E-01  0.289E-01
   0.957  0.860E-01  0.287E-01  0.287E-01  0.287E-01
   0.967  0.853E-01  0.284E-01  0.284E-01  0.284E-01
   0.977  0.847E-01  0.282E-01  0.282E-01  0.282E-01
   0.987  0.841E-01  0.280E-01  0.280E-01  0.280E-01
   0.997  0.836E-01  0.279E-01  0.279E-01  0.279E-01
   1.007  0.830E-01  0.277E-01  0.277E-01  0.277E-01
   1.017  0.825E-01  0.275E-01  0.275E-01  0.275E-01
   1.027  0.821E-01  0.274E-01  0.274E-01  0.274E-01
   1.037  0.816E-01  0.272E-01  0.272E-01  0.272E-01
   1.047  0.813E-01  0.271E-01  0.271E-01  0.271E-01
   1.057  0.809E-01  0.270E-01  0.270E-01  0.270E-01
   1.067  0.806E-01  0.269E-01  0.269E-01  0.269E-01
   1.077  0.803E-01  0.268E-01  0.268E-01  0.268E-01
   1.087  0.800E-01  0.267E-01  0.267E-01  0.267E-01
   1.097  0.798E-01  0.266E-01  0.266E-01  0.266E-01
   1.107  0.796E-01  0.265E-01  0.265E-01  0.265E-01
   1.117  0.793E-01  0.264E-01  0.264E-01  0.264E-01
   1.127  0.791E-01  0.264E-01  0.264E-01  0.264E-01
   1.137  0.789E-01  0.263E-01  0.263E-01  0.263E-01
   1.147  0.787E-01  0.262E-01  0.262E-01  0.262E-01
   1.157  0.785E-01  0.262E-01  0.262E-01  0.262E-01
   1.167  0.783E-01  0.261E-01  0.261E-01  0.261E-01
   1.177  0.781E-01  0.260E-01  0.260E-01  0.260E-01
   1.187  0.779E-01  0.260E-01  0.260E-01  0.260E-01
   1.197  0.777E-01  0.259E-01  0.259E-01  0.259E-01
   1.207  0.775E-01  0.258E-01  0.258E-01  0.258E-01
   1.217  0.773E-01  0.258E-01  0.258E-01  0.258E-01
   1.227  0.770E-01  0.257E-01  0.257E-01  0.257E-01
   1.237  0.768E-01  0.256E-01  0.256E-01  0.256E-01
   1.247  0.766E-01  0.255E-01  0.255E-01  0.255E-01
   1.257  0.764E-01  0.255E-01  0.255E-01  0.255E-01
   1.267  0.762E-01  0.254E-01  0.254E-01  0.254E-01
   1.277  0.760E-01  0.253E-01  0.253E-01  0.253E-01
   1.287  0.758E-01  0.253E-01  0.253E-01  0.253E-01
   1.297  0.757E-01  0.252E-01  0.252E-01  0.252E-01
   1.307  0.755E-01  0.252E-01  0.252E-01  0.252E-01
   1.317  0.753E-01  0.251E-01  0.251E-01  0.251E-01
   1.327  0.751E-01  0.250E-01  0.250E-01  0.250E-01
   1.337  0.749E-01  0.250E-01  0.250E-01  0.250E-01
   1.347  0.747E-01  0.249E-01  0.249E-01  0.249E-01
   1.357  0.745E-01  0.248E-01  0.248E-01  0.248E-01
   1.367  0.743E-01  0.248E-01  0.248E-01  0.248E-01
   1.377  0.741E-01  0.247E-01  0.247E-01  0.247E-01
   1.387  0.739E-01  0.246E-01  0.246E-01  0.246E-01
   1.397  0.738E-01  0.246E-01  0.246E-01  0.246E-01
   1.407  0.736E-01  0.245E-01  0.245E-01  0.245E-01
   1.417  0.734E-01  0.245E-01  0.245E-01  0.245E-01
   1.427  0.732E-01  0.244E-01  0.244E-01  0.244E-01
   1.437  0.730E-01  0.243E-01  0.243E-01  0.243E-01
   1.447  0.728E-01  0.243E-01  0.243E-01  0.243E-01
   1.457  0.727E-01  0.242E-01  0.242E-01  0.242E-01
   1.467  0.725E-01  0.242E-01  0.242E-01  0.242E-01
   1.477  0.723E-01  0.241E-01  0.241E-01  0.241E-01
   1.487  0.721E-01  0.240E-01  0.240E-01  0.240E-01
   1.497  0.719E-01  0.240E-01  0.240E-01  0.240E-01
   1.507  0.718E-01  0.239E-01  0.239E-01  0.239E-01
   1.517  0.716E-01  0.239E-01  0.239E-01  0.239E-01
   1.527  0.714E-01  0.238E-01  0.238E-01  0.238E-01
   1.537  0.712E-01  0.237E-01  0.237E-01  0.237E-01
   1.547  0.710E-01  0.237E-01  0.237E-01  0.237E-01
   1.557  0.708E-01  0.236E-01  0.236E-01  0.236E-01
   1.567  0.707E-01  0.236E-01  0.236E-01  0.236E-01
   1.577  0.705E-01  0.235E-01  0.235E-01  0.235E-01
   1.587  0.703E-01  0.234E-01  0.234E-01  0.234E-01
   1.597  0.701E-01  0.234E-01  0.234E-01  0.234E-01
   1.607  0.699E-01  0.233E-01  0.233E-01  0.233E-01
   1.617  0.698E-01  0.233E-01  0.233E-01  0.233E-01
   1.627  0.696E-01  0.232E-01  0.232E-01  0.232E-01
   1.637  0.694E-01  0.231E-01  0.231E-01  0.231E-01
   1.647  0.692E-01  0.231E-01  0.231E-01  0.231E-01
   1.657  0.690E-01  0.230E-01  0.230E-01  0.230E-01
   1.667  0.688E-01  0.229E-01  0.229E-01  0.229E-01
   1.677  0.686E-01  0.229E-01  0.229E-01  0.229E-01
   1.687  0.685E-01  0.228E-01  0.228E-01  0.228E-01
   1.697  0.683E-01  0.228E-01  0.228E-01  0.228E-01
   1.707  0.681E-01  0.227E-01  0.227E-01  0.227E-01
   1.717  0.679E-01  0.226E-01  0.226E-01  0.226E-01
   1.727  0.677E-01  0.226E-01  0.226E-01  0.226E-01
   1.737  0.675E-01  0.225E-01  0.225E-01  0.225E-01
   1.747  0.674E-01  0.225E-01  0.225E-01  0.225E-01
   1.757  0.672E-01  0.224E-01  0.224E-01  0.224E-01
   1.767  0.126E+00  0.420E-01  0.420E-01  0.420E-01
   1.777  0.138E+00  0.459E-01  0.459E-01  0.459E-01
   1.787  0.155E+00  0.518E-01  0.518E-01  0.518E-01
   1.797  0.179E+00  0.596E-01  0.596E-01  0.596E-01
   1.807  0.208E+00  0.693E-01  0.693E-01  0.693E-01
   1.817  0.242E+00  0.808E-01  0.808E-01  0.808E-01
   1.827  0.282E+00  0.941E-01  0.941E-01  0.941E-01
   1.837  0.328E+00  0.109E+00  0.109E+00  0.109E+00
   1.847  0.379E+00  0.126E+00  0.126E+00  0.126E+00
   1.857  0.432E+00  0.144E+00  0.144E+00  0.144E+00
   1.867  0.474E+00  0.158E+00  0.158E+00  0.158E+00
   1.877  0.504E+00  0.168E+00  0.168E+00  0.168E+00
   1.887  0.521E+00  0.174E+00  0.174E+00  0.174E+00
   1.897  0.527E+00  0.176E+00  0.176E+00  0.176E+00
   1.907  0.520E+00  0.173E+00  0.173E+00  0.173E+00
   1.917  0.501E+00  0.167E+00  0.167E+00  0.167E+00
   1.927  0.479E+00  0.160E+00  0.160E+00  0.160E+00
   1.937  0.489E+00  0.163E+00  0.163E+00  0.163E+00
   1.947  0.498E+00  0.166E+00  0.166E+00  0.166E+00
   1.957  0.506E+00  0.169E+00  0.169E+00  0.169E+00
   1.967  0.514E+00  0.171E+00  0.171E+00  0.171E+00
   1.977  0.521E+00  0.174E+00  0.174E+00  0.174E+00
   1.987  0.528E+00  0.176E+00  0.176E+00  0.176E+00
   1.997  0.535E+00  0.178E+00  0.178E+00  0.178E+00
   2.007  0.540E+00  0.180E+00  0.180E+00  0.180E+00
   2.017  0.546E+00  0.182E+00  0.182E+00  0.182E+00
   2.027  0.550E+00  0.183E+00  0.183E+00  0.183E+00
   2.037  0.555E+00  0.185E+00  0.185E+00  0.185E+00
   2.047  0.558E+00  0.186E+00  0.186E+00  0.186E+00
   2.057  0.562E+00  0.187E+00  0.187E+00  0.187E+00
   2.067  0.564E+00  0.188E+00  0.188E+00  0.188E+00
   2.077  0.567E+00  0.189E+00  0.189E+00  0.189E+00
   2.087  0.568E+00  0.189E+00  0.189E+00  0.189E+00
   2.097  0.569E+00  0.190E+00  0.190E+00  0.190E+00
   2.107  0.570E+00  0.190E+00  0.190E+00  0.190E+00
   2.117  0.570E+00  0.190E+00  0.190E+00  0.190E+00
   2.127  0.570E+00  0.190E+00  0.190E+00  0.190E+00
   2.137  0.569E+00  0.190E+00  0.190E+00  0.190E+00
   2.147  0.568E+00  0.189E+00  0.189E+00  0.189E+00
   2.157  0.566E+00  0.189E+00  0.189E+00  0.189E+00
   2.167  0.564E+00  0.188E+00  0.188E+00  0.188E+00
   2.177  0.561E+00  0.187E+00  0.187E+00  0.187E+00
   2.187  0.558E+00  0.186E+00  0.186E+00  0.186E+00
   2.197  0.554E+00  0.185E+00  0.185E+00  0.185E+00
   2.207  0.550E+00  0.183E+00  0.183E+00  0.183E+00
   2.217  0.545E+00  0.182E+00  0.182E+00  0.182E+00
   2.227  0.540E+00  0.180E+00  0.180E+00  0.180E+00
   2.237  0.535E+00  0.178E+00  0.178E+00  0.178E+00
   2.247  0.529E+00  0.176E+00  0.176E+00  0.176E+00
   2.257  0.522E+00  0.174E+00  0.174E+00  0.174E+00
   2.267  0.516E+00  0.172E+00  0.172E+00  0.172E+00
   2.277  0.508E+00  0.169E+00  0.169E+00  0.169E+00
   2.287  0.501E+00  0.167E+00  0.167E+00  0.167E+00
   2.297  0.493E+00  0.164E+00  0.164E+00  0.164E+00
   2.307  0.485E+00  0.162E+00  0.162E+00  0.162E+00
   2.317  0.481E+00  0.160E+00  0.160E+00  0.160E+00
   2.327  0.478E+00  0.159E+00  0.159E+00  0.159E+00
   2.337  0.506E+00  0.169E+00  0.169E+00  0.169E+00
   2.347  0.571E+00  0.190E+00  0.190E+00  0.190E+00
   2.357  0.607E+00  0.202E+00  0.202E+00  0.202E+00
   2.367  0.614E+00  0.205E+00  0.205E+00  0.205E+00
   2.377  0.593E+00  0.198E+00  0.198E+00  0.198E+00
   2.387  0.543E+00  0.181E+00  0.181E+00  0.181E+00
   2.397  0.465E+00  0.155E+00  0.155E+00  0.155E+00
   2.407  0.450E+00  0.150E+00  0.150E+00  0.150E+00
   2.417  0.449E+00  0.150E+00  0.150E+00  0.150E+00
   2.427  0.449E+00  0.150E+00  0.150E+00  0.150E+00
   2.437  0.449E+00  0.150E+00  0.150E+00  0.150E+00
   2.447  0.448E+00  0.149E+00  0.149E+00  0.149E+00
   2.457  0.448E+00  0.149E+00  0.149E+00  0.149E+00
   2.467  0.448E+00  0.149E+00  0.149E+00  0.149E+00
   2.477  0.447E+00  0.149E+00  0.149E+00  0.149E+00
   2.487  0.447E+00  0.149E+00  0.149E+00  0.149E+00
   2.497  0.447E+00  0.149E+00  0.149E+00  0.149E+00
   2.507  0.446E+00  0.149E+00  0.149E+00  0.149E+00
   2.517  0.446E+00  0.149E+00  0.149E+00  0.149E+00
   2.527  0.445E+00  0.148E+00  0.148E+00  0.148E+00
   2.537  0.445E+00  0.148E+00  0.148E+00  0.148E+00
   2.547  0.444E+00  0.148E+00  0.148E+00  0.148E+00
   2.557  0.444E+00  0.148E+00  0.148E+00  0.148E+00
   2.567  0.443E+00  0.148E+00  0.148E+00  0.148E+00
   2.577  0.442E+00  0.147E+00  0.147E+00  0.147E+00
   2.587  0.442E+00  0.147E+00  0.147E+00  0.147E+00
   2.597  0.441E+00  0.147E+00  0.147E+00  0.147E+00
   2.607  0.440E+00  0.147E+00  0.147E+00  0.147E+00
   2.617  0.440E+00  0.147E+00  0.147E+00  0.147E+00
   2.627  0.439E+00  0.146E+00  0.146E+00  0.146E+00
   2.637  0.438E+00  0.146E+00  0.146E+00  0.146E+00
   2.647  0.437E+00  0.146E+00  0.146E+00  0.146E+00
   2.657  0.437E+00  0.146E+00  0.146E+00  0.146E+00
   2.667  0.436E+00  0.145E+00  0.145E+00  0.145E+00
   2.677  0.435E+00  0.145E+00  0.145E+00  0.145E+00
   2.687  0.434E+00  0.145E+00  0.145E+00  0.145E+00
   2.697  0.433E+00  0.144E+00  0.144E+00  0.144E+00
   2.707  0.432E+00  0.144E+00  0.144E+00  0.144E+00
   2.717  0.432E+00  0.144E+00  0.144E+00  0.144E+00
   2.727  0.431E+00  0.144E+00  0.144E+00  0.144E+00
   2.737  0.430E+00  0.143E+00  0.143E+00  0.143E+00
   2.747  0.429E+00  0.143E+00  0.143E+00  0.143E+00
   2.757  0.428E+00  0.143E+00  0.143E+00  0.143E+00
   2.767  0.427E+00  0.142E+00  0.142E+00  0.142E+00
   2.777  0.426E+00  0.142E+00  0.142E+00  0.142E+00
   2.787  0.424E+00  0.141E+00  0.141E+00  0.141E+00
   2.797  0.423E+00  0.141E+00  0.141E+00  0.141E+00
   2.807  0.422E+00  0.141E+00  0.141E+00  0.141E+00
   2.817  0.466E+00  0.155E+00  0.155E+00  0.155E+00
   2.827  0.525E+00  0.175E+00  0.175E+00  0.175E+00
   2.837  0.585E+00  0.195E+00  0.195E+00  0.195E+00
   2.847  0.646E+00  0.215E+00  0.215E+00  0.215E+00
   2.857  0.707E+00  0.236E+00  0.236E+00  0.236E+00
   2.867  0.768E+00  0.256E+00  0.256E+00  0.256E+00
   2.877  0.795E+00  0.265E+00  0.265E+00  0.265E+00
   2.887  0.856E+00  0.285E+00  0.285E+00  0.285E+00
   2.897  0.918E+00  0.306E+00  0.306E+00  0.306E+00
   2.907  0.559E+00  0.186E+00  0.186E+00  0.186E+00
   2.917  0.562E+00  0.187E+00  0.187E+00  0.187E+00
   2.927  0.565E+00  0.188E+00  0.188E+00  0.188E+00
   2.937  0.568E+00  0.189E+00  0.189E+00  0.189E+00
   2.947  0.571E+00  0.190E+00  0.190E+00  0.190E+00
   2.957  0.574E+00  0.191E+00  0.191E+00  0.191E+00
   2.967  0.578E+00  0.193E+00  0.193E+00  0.193E+00
   2.977  0.582E+00  0.194E+00  0.194E+00  0.194E+00
   2.987  0.586E+00  0.195E+00  0.195E+00  0.195E+00
   2.997  0.591E+00  0.197E+00  0.197E+00  0.197E+00
   3.007  0.595E+00  0.198E+00  0.198E+00  0.198E+00
   3.017  0.600E+00  0.200E+00  0.200E+00  0.200E+00
   3.027  0.605E+00  0.202E+00  0.202E+00  0.202E+00
   3.037  0.610E+00  0.203E+00  0.203E+00  0.203E+00
   3.047  0.616E+00  0.205E+00  0.205E+00  0.205E+00
   3.057  0.622E+00  0.207E+00  0.207E+00  0.207E+00
   3.067  0.628E+00  0.209E+00  0.209E+00  0.209E+00
   3.077  0.634E+00  0.211E+00  0.211E+00  0.211E+00
   3.087  0.640E+00  0.213E+00  0.213E+00  0.213E+00
   3.097  0.647E+00  0.216E+00  0.216E+00  0.216E+00
   3.107  0.654E+00  0.218E+00  0.218E+00  0.218E+00
   3.117  0.661E+00  0.220E+00  0.220E+00  0.220E+00
   3.127  0.668E+00  0.223E+00  0.223E+00  0.223E+00
   3.137  0.675E+00  0.225E+00  0.225E+00  0.225E+00
   3.147  0.683E+00  0.228E+00  0.228E+00  0.228E+00
   3.157  0.691E+00  0.230E+00  0.230E+00  0.230E+00
   3.167  0.699E+00  0.233E+00  0.233E+00  0.233E+00
   3.177  0.708E+00  0.236E+00  0.236E+00  0.236E+00
   3.187  0.716E+00  0.239E+00  0.239E+00  0.239E+00
   3.197  0.725E+00  0.242E+00  0.242E+00  0.242E+00
   3.207  0.734E+00  0.245E+00  0.245E+00  0.245E+00
   3.217  0.744E+00  0.248E+00  0.248E+00  0.248E+00
   3.227  0.753E+00  0.251E+00  0.251E+00  0.251E+00
   3.237  0.802E+00  0.267E+00  0.267E+00  0.267E+00
   3.247  0.870E+00  0.290E+00  0.290E+00  0.290E+00
   3.257  0.903E+00  0.301E+00  0.301E+00  0.301E+00
   3.267  0.899E+00  0.300E+00  0.300E+00  0.300E+00
   3.277  0.859E+00  0.286E+00  0.286E+00  0.286E+00
   3.287  0.783E+00  0.261E+00  0.261E+00  0.261E+00
   3.297  0.714E+00  0.238E+00  0.238E+00  0.238E+00
   3.307  0.714E+00  0.238E+00  0.238E+00  0.238E+00
   3.317  0.715E+00  0.238E+00  0.238E+00  0.238E+00
   3.327  0.715E+00  0.238E+00  0.238E+00  0.238E+00
   3.337  0.714E+00  0.238E+00  0.238E+00  0.238E+00
   3.347  0.713E+00  0.238E+00  0.238E+00  0.238E+00
   3.357  0.712E+00  0.237E+00  0.237E+00  0.237E+00
   3.367  0.712E+00  0.237E+00  0.237E+00  0.237E+00
   3.377  0.711E+00  0.237E+00  0.237E+00  0.237E+00
   3.387  0.710E+00  0.237E+00  0.237E+00  0.237E+00
   3.397  0.709E+00  0.236E+00  0.236E+00  0.236E+00
   3.407  0.708E+00  0.236E+00  0.236E+00  0.236E+00
   3.417  0.707E+00  0.236E+00  0.236E+00  0.236E+00
   3.427  0.706E+00  0.235E+00  0.235E+00  0.235E+00
   3.437  0.706E+00  0.235E+00  0.235E+00  0.235E+00
   3.447  0.705E+00  0.235E+00  0.235E+00  0.235E+00
   3.457  0.704E+00  0.235E+00  0.235E+00  0.235E+00
   3.467  0.703E+00  0.234E+00  0.234E+00  0.234E+00
   3.477  0.702E+00  0.234E+00  0.234E+00  0.234E+00
   3.487  0.702E+00  0.234E+00  0.234E+00  0.234E+00
   3.497  0.701E+00  0.234E+00  0.234E+00  0.234E+00
   3.507  0.700E+00  0.233E+00  0.233E+00  0.233E+00
   3.517  0.699E+00  0.233E+00  0.233E+00  0.233E+00
   3.527  0.699E+00  0.233E+00  0.233E+00  0.233E+00
   3.537  0.698E+00  0.233E+00  0.233E+00  0.233E+00
   3.547  0.697E+00  0.232E+00  0.232E+00  0.232E+00
   3.557  0.696E+00  0.232E+00  0.232E+00  0.232E+00
   3.567  0.696E+00  0.232E+00  0.232E+00  0.232E+00
   3.577  0.695E+00  0.232E+00  0.232E+00  0.232E+00
   3.587  0.694E+00  0.231E+00  0.231E+00  0.231E+00
   3.597  0.694E+00  0.231E+00  0.231E+00  0.231E+00
   3.607  0.692E+00  0.231E+00  0.231E+00  0.231E+00
   3.617  0.690E+00  0.230E+00  0.230E+00  0.230E+00
   3.627  0.688E+00  0.229E+00  0.229E+00  0.229E+00
   3.637  0.688E+00  0.229E+00  0.229E+00  0.229E+00
   3.647  0.687E+00  0.229E+00  0.229E+00  0.229E+00
   3.657  0.688E+00  0.229E+00  0.229E+00  0.229E+00
   3.667  0.689E+00  0.230E+00  0.230E+00  0.230E+00
   3.677  0.691E+00  0.230E+00  0.230E+00  0.230E+00
   3.687  0.693E+00  0.231E+00  0.231E+00  0.231E+00
   3.697  0.694E+00  0.231E+00  0.231E+00  0.231E+00
   3.707  0.696E+00  0.232E+00  0.232E+00  0.232E+00
   3.717  0.697E+00  0.232E+00  0.232E+00  0.232E+00
   3.727  0.697E+00  0.232E+00  0.232E+00  0.232E+00
   3.737  0.698E+00  0.233E+00  0.233E+00  0.233E+00
   3.747  0.698E+00  0.233E+00  0.233E+00  0.233E+00
   3.757  0.698E+00  0.233E+00  0.233E+00  0.233E+00
   3.767  0.698E+00  0.233E+00  0.233E+00  0.233E+00
   3.777  0.697E+00  0.232E+00  0.232E+00  0.232E+00
   3.787  0.697E+00  0.232E+00  0.232E+00  0.232E+00
   3.797  0.696E+00  0.232E+00  0.232E+00  0.232E+00
   3.807  0.696E+00  0.232E+00  0.232E+00  0.232E+00
   3.817  0.696E+00  0.232E+00  0.232E+00  0.232E+00
   3.827  0.695E+00  0.232E+00  0.232E+00  0.232E+00
   3.837  0.695E+00  0.232E+00  0.232E+00  0.232E+00
   3.847  0.695E+00  0.232E+00  0.232E+00  0.232E+00
   3.857  0.694E+00  0.231E+00  0.231E+00  0.231E+00
   3.867  0.694E+00  0.231E+00  0.231E+00  0.231E+00
   3.877  0.694E+00  0.231E+00  0.231E+00  0.231E+00
   3.887  0.693E+00  0.231E+00  0.231E+00  0.231E+00
   3.897  0.693E+00  0.231E+00  0.231E+00  0.231E+00
   3.907  0.692E+00  0.231E+00  0.231E+00  0.231E+00
   3.917  0.692E+00  0.231E+00  0.231E+00  0.231E+00
   3.927  0.691E+00  0.230E+00  0.230E+00  0.230E+00
   3.937  0.691E+00  0.230E+00  0.230E+00  0.230E+00
   3.947  0.690E+00  0.230E+00  0.230E+00  0.230E+00
   3.957  0.689E+00  0.230E+00  0.230E+00  0.230E+00
   3.967  0.689E+00  0.230E+00  0.230E+00  0.230E+00
   3.977  0.688E+00  0.229E+00  0.229E+00  0.229E+00
   3.987  0.687E+00  0.229E+00  0.229E+00  0.229E+00
   3.997  0.686E+00  0.229E+00  0.229E+00  0.229E+00
   4.007  0.685E+00  0.228E+00  0.228E+00  0.228E+00
   4.017  0.684E+00  0.228E+00  0.228E+00  0.228E+00
   4.027  0.683E+00  0.228E+00  0.228E+00  0.228E+00
   4.037  0.682E+00  0.227E+00  0.227E+00  0.227E+00
   4.047  0.681E+00  0.227E+00  0.227E+00  0.227E+00
   4.057  0.680E+00  0.227E+00  0.227E+00  0.227E+00
   4.067  0.678E+00  0.226E+00  0.226E+00  0.226E+00
   4.077  0.677E+00  0.226E+00  0.226E+00  0.226E+00
   4.087  0.675E+00  0.225E+00  0.225E+00  0.225E+00
   4.097  0.674E+00  0.225E+00  0.225E+00  0.225E+00
   4.107  0.672E+00  0.224E+00  0.224E+00  0.224E+00
   4.117  0.671E+00  0.224E+00  0.224E+00  0.224E+00
   4.127  0.669E+00  0.223E+00  0.223E+00  0.223E+00
   4.137  0.668E+00  0.223E+00  0.223E+00  0.223E+00
   4.147  0.666E+00  0.222E+00  0.222E+00  0.222E+00
   4.157  0.665E+00  0.222E+00  0.222E+00  0.222E+00
   4.167  0.664E+00  0.221E+00  0.221E+00  0.221E+00
   4.177  0.662E+00  0.221E+00  0.221E+00  0.221E+00
   4.187  0.661E+00  0.220E+00  0.220E+00  0.220E+00
   4.197  0.659E+00  0.220E+00  0.220E+00  0.220E+00
   4.207  0.658E+00  0.219E+00  0.219E+00  0.219E+00
   4.217  0.657E+00  0.219E+00  0.219E+00  0.219E+00
   4.227  0.655E+00  0.218E+00  0.218E+00  0.218E+00
   4.237  0.653E+00  0.218E+00  0.218E+00  0.218E+00
   4.247  0.652E+00  0.217E+00  0.217E+00  0.217E+00
   4.257  0.650E+00  0.217E+00  0.217E+00  0.217E+00
   4.267  0.648E+00  0.216E+00  0.216E+00  0.216E+00
   4.277  0.646E+00  0.215E+00  0.215E+00  0.215E+00
   4.287  0.643E+00  0.214E+00  0.214E+00  0.214E+00
   4.297  0.641E+00  0.214E+00  0.214E+00  0.214E+00
   4.307  0.640E+00  0.213E+00  0.213E+00  0.213E+00
   4.317  0.638E+00  0.213E+00  0.213E+00  0.213E+00
   4.327  0.637E+00  0.212E+00  0.212E+00  0.212E+00
   4.337  0.636E+00  0.212E+00  0.212E+00  0.212E+00
   4.347  0.636E+00  0.212E+00  0.212E+00  0.212E+00
   4.357  0.636E+00  0.212E+00  0.212E+00  0.212E+00
   4.367  0.636E+00  0.212E+00  0.212E+00  0.212E+00
   4.377  0.636E+00  0.212E+00  0.212E+00  0.212E+00
   4.387  0.637E+00  0.212E+00  0.212E+00  0.212E+00
   4.397  0.639E+00  0.213E+00  0.213E+00  0.213E+00
   4.407  0.640E+00  0.213E+00  0.213E+00  0.213E+00
   4.417  0.642E+00  0.214E+00  0.214E+00  0.214E+00
   4.427  0.643E+00  0.214E+00  0.214E+00  0.214E+00
   4.437  0.643E+00  0.214E+00  0.214E+00  0.214E+00
   4.447  0.643E+00  0.214E+00  0.214E+00  0.214E+00
   4.457  0.643E+00  0.214E+00  0.214E+00  0.214E+00
   4.467  0.644E+00  0.215E+00  0.215E+00  0.215E+00
   4.477  0.645E+00  0.215E+00  0.215E+00  0.215E+00
   4.487  0.647E+00  0.216E+00  0.216E+00  0.216E+00
   4.497  0.644E+00  0.215E+00  0.215E+00  0.215E+00
   4.507  0.641E+00  0.214E+00  0.214E+00  0.214E+00
   4.517  0.637E+00  0.212E+00  0.212E+00  0.212E+00
   4.527  0.634E+00  0.211E+00  0.211E+00  0.211E+00
   4.537  0.630E+00  0.210E+00  0.210E+00  0.210E+00
   4.547  0.626E+00  0.209E+00  0.209E+00  0.209E+00
   4.557  0.621E+00  0.207E+00  0.207E+00  0.207E+00
   4.567  0.616E+00  0.205E+00  0.205E+00  0.205E+00
   4.577  0.612E+00  0.204E+00  0.204E+00  0.204E+00
   4.587  0.606E+00  0.202E+00  0.202E+00  0.202E+00
   4.597  0.601E+00  0.200E+00  0.200E+00  0.200E+00
   4.607  0.595E+00  0.198E+00  0.198E+00  0.198E+00
   4.617  0.589E+00  0.196E+00  0.196E+00  0.196E+00
   4.627  0.583E+00  0.194E+00  0.194E+00  0.194E+00
   4.637  0.577E+00  0.192E+00  0.192E+00  0.192E+00
   4.647  0.570E+00  0.190E+00  0.190E+00  0.190E+00
   4.657  0.563E+00  0.188E+00  0.188E+00  0.188E+00
   4.667  0.556E+00  0.185E+00  0.185E+00  0.185E+00
   4.677  0.549E+00  0.183E+00  0.183E+00  0.183E+00
   4.687  0.541E+00  0.180E+00  0.180E+00  0.180E+00
   4.697  0.533E+00  0.178E+00  0.178E+00  0.178E+00
   4.707  0.525E+00  0.175E+00  0.175E+00  0.175E+00
   4.717  0.516E+00  0.172E+00  0.172E+00  0.172E+00
   4.727  0.508E+00  0.169E+00  0.169E+00  0.169E+00
   4.737  0.499E+00  0.166E+00  0.166E+00  0.166E+00
   4.747  0.489E+00  0.163E+00  0.163E+00  0.163E+00
   4.757  0.480E+00  0.160E+00  0.160E+00  0.160E+00
   4.767  0.470E+00  0.157E+00  0.157E+00  0.157E+00
   4.777  0.460E+00  0.153E+00  0.153E+00  0.153E+00
   4.787  0.450E+00  0.150E+00  0.150E+00  0.150E+00
   4.797  0.440E+00  0.147E+00  0.147E+00  0.147E+00
   4.807  0.429E+00  0.143E+00  0.143E+00  0.143E+00
   4.817  0.418E+00  0.139E+00  0.139E+00  0.139E+00
   4.827  0.407E+00  0.136E+00  0.136E+00  0.136E+00
   4.837  0.400E+00  0.133E+00  0.133E+00  0.133E+00
   4.847  0.395E+00  0.132E+00  0.132E+00  0.132E+00
   4.857  0.389E+00  0.130E+00  0.130E+00  0.130E+00
   4.867  0.384E+00  0.128E+00  0.128E+00  0.128E+00
   4.877  0.378E+00  0.126E+00  0.126E+00  0.126E+00
   4.887  0.372E+00  0.124E+00  0.124E+00  0.124E+00
   4.897  0.365E+00  0.122E+00  0.122E+00  0.122E+00
   4.907  0.359E+00  0.120E+00  0.120E+00  0.120E+00
   4.917  0.352E+00  0.117E+00  0.117E+00  0.117E+00
   4.927  0.345E+00  0.115E+00  0.115E+00  0.115E+00
   4.937  0.338E+00  0.113E+00  0.113E+00  0.113E+00
   4.947  0.331E+00  0.110E+00  0.110E+00  0.110E+00
   4.957  0.323E+00  0.108E+00  0.108E+00  0.108E+00
   4.967  0.316E+00  0.105E+00  0.105E+00  0.105E+00
   4.977  0.308E+00  0.103E+00  0.103E+00  0.103E+00
   4.987  0.300E+00  0.999E-01  0.999E-01  0.999E-01
   4.997  0.292E+00  0.972E-01  0.972E-01  0.972E-01
   5.007  0.283E+00  0.944E-01  0.944E-01  0.944E-01
   5.017  0.275E+00  0.918E-01  0.918E-01  0.918E-01
   5.027  0.268E+00  0.894E-01  0.894E-01  0.894E-01
   5.037  0.261E+00  0.870E-01  0.870E-01  0.870E-01
   5.047  0.255E+00  0.849E-01  0.849E-01  0.849E-01
   5.057  0.249E+00  0.829E-01  0.829E-01  0.829E-01
   5.067  0.243E+00  0.811E-01  0.811E-01  0.811E-01
   5.077  0.238E+00  0.794E-01  0.794E-01  0.794E-01
   5.087  0.234E+00  0.779E-01  0.779E-01  0.779E-01
   5.097  0.229E+00  0.765E-01  0.765E-01  0.765E-01
   5.107  0.226E+00  0.753E-01  0.753E-01  0.753E-01
   5.117  0.223E+00  0.742E-01  0.742E-01  0.742E-01
   5.127  0.220E+00  0.732E-01  0.732E-01  0.732E-01
   5.137  0.217E+00  0.722E-01  0.722E-01  0.722E-01
   5.147  0.214E+00  0.712E-01  0.712E-01  0.712E-01
   5.157  0.211E+00  0.703E-01  0.703E-01  0.703E-01
   5.167  0.208E+00  0.693E-01  0.693E-01  0.693E-01
   5.177  0.205E+00  0.684E-01  0.684E-01  0.684E-01
   5.187  0.202E+00  0.674E-01  0.674E-01  0.674E-01
   5.197  0.200E+00  0.665E-01  0.665E-01  0.665E-01
   5.207  0.197E+00  0.656E-01  0.656E-01  0.656E-01
   5.217  0.194E+00  0.648E-01  0.648E-01  0.648E-01
   5.227  0.192E+00  0.639E-01  0.639E-01  0.639E-01
   5.237  0.189E+00  0.630E-01  0.630E-01  0.630E-01
   5.247  0.187E+00  0.622E-01  0.622E-01  0.622E-01
   5.257  0.184E+00  0.614E-01  0.614E-01  0.614E-01
   5.267  0.182E+00  0.605E-01  0.605E-01  0.605E-01
   5.277  0.179E+00  0.597E-01  0.597E-01  0.597E-01
   5.287  0.177E+00  0.590E-01  0.590E-01  0.590E-01
   5.297  0.175E+00  0.582E-01  0.582E-01  0.582E-01
   5.307  0.172E+00  0.574E-01  0.574E-01  0.574E-01
   5.317  0.170E+00  0.567E-01  0.567E-01  0.567E-01
   5.327  0.168E+00  0.559E-01  0.559E-01  0.559E-01
   5.337  0.166E+00  0.552E-01  0.552E-01  0.552E-01
   5.347  0.164E+00  0.545E-01  0.545E-01  0.545E-01
   5.357  0.162E+00  0.538E-01  0.538E-01  0.538E-01
   5.367  0.159E+00  0.532E-01  0.532E-01  0.532E-01
   5.377  0.158E+00  0.525E-01  0.525E-01  0.525E-01
   5.387  0.156E+00  0.519E-01  0.519E-01  0.519E-01
   5.397  0.154E+00  0.512E-01  0.512E-01  0.512E-01
   5.407  0.152E+00  0.506E-01  0.506E-01  0.506E-01
   5.417  0.150E+00  0.500E-01  0.500E-01  0.500E-01
   5.427  0.148E+00  0.494E-01  0.494E-01  0.494E-01
   5.437  0.146E+00  0.488E-01  0.488E-01  0.488E-01
   5.447  0.145E+00  0.483E-01  0.483E-01  0.483E-01
   5.457  0.143E+00  0.477E-01  0.477E-01  0.477E-01
   5.467  0.142E+00  0.472E-01  0.472E-01  0.472E-01
   5.477  0.140E+00  0.467E-01  0.467E-01  0.467E-01
   5.487  0.138E+00  0.461E-01  0.461E-01  0.461E-01
   5.497  0.137E+00  0.457E-01  0.457E-01  0.457E-01
   5.507  0.136E+00  0.452E-01  0.452E-01  0.452E-01
   5.517  0.134E+00  0.447E-01  0.447E-01  0.447E-01
   5.527  0.133E+00  0.443E-01  0.443E-01  0.443E-01
   5.537  0.131E+00  0.438E-01  0.438E-01  0.438E-01
   5.547  0.130E+00  0.434E-01  0.434E-01  0.434E-01
   5.557  0.129E+00  0.430E-01  0.430E-01  0.430E-01
   5.567  0.128E+00  0.426E-01  0.426E-01  0.426E-01
   5.577  0.127E+00  0.422E-01  0.422E-01  0.422E-01
   5.587  0.126E+00  0.418E-01  0.418E-01  0.418E-01
   5.597  0.122E+00  0.406E-01  0.406E-01  0.406E-01
   5.607  0.111E+00  0.370E-01  0.370E-01  0.370E-01
   5.617  0.935E-01  0.312E-01  0.312E-01  0.312E-01
   5.627  0.705E-01  0.235E-01  0.235E-01  0.235E-01
   5.637  0.666E-01  0.222E-01  0.222E-01  0.222E-01
   5.647  0.628E-01  0.209E-01  0.209E-01  0.209E-01
   5.657  0.591E-01  0.197E-01  0.197E-01  0.197E-01
   5.667  0.555E-01  0.185E-01  0.185E-01  0.185E-01
   5.677  0.520E-01  0.173E-01  0.173E-01  0.173E-01
   5.687  0.487E-01  0.162E-01  0.162E-01  0.162E-01
   5.697  0.454E-01  0.151E-01  0.151E-01  0.151E-01
   5.707  0.423E-01  0.141E-01  0.141E-01  0.141E-01
   5.717  0.393E-01  0.131E-01  0.131E-01  0.131E-01
   5.727  0.364E-01  0.121E-01  0.121E-01  0.121E-01
   5.737  0.336E-01  0.112E-01  0.112E-01  0.112E-01
   5.747  0.309E-01  0.103E-01  0.103E-01  0.103E-01
   5.757  0.283E-01  0.944E-02  0.944E-02  0.944E-02
   5.767  0.259E-01  0.863E-02  0.863E-02  0.863E-02
   5.777  0.235E-01  0.784E-02  0.784E-02  0.784E-02
   5.787  0.213E-01  0.710E-02  0.710E-02  0.710E-02
   5.797  0.192E-01  0.639E-02  0.639E-02  0.639E-02
   5.807  0.172E-01  0.572E-02  0.572E-02  0.572E-02
   5.817  0.153E-01  0.509E-02  0.509E-02  0.509E-02
   5.827  0.135E-01  0.449E-02  0.449E-02  0.449E-02
   5.837  0.118E-01  0.393E-02  0.393E-02  0.393E-02
   5.847  0.102E-01  0.341E-02  0.341E-02  0.341E-02
   5.857  0.879E-02  0.293E-02  0.293E-02  0.293E-02
   5.867  0.745E-02  0.248E-02  0.248E-02  0.248E-02
   5.877  0.622E-02  0.207E-02  0.207E-02  0.207E-02
   5.887  0.510E-02  0.170E-02  0.170E-02  0.170E-02
   5.897  0.409E-02  0.136E-02  0.136E-02  0.136E-02
   5.907  0.319E-02  0.106E-02  0.106E-02  0.106E-02
   5.917  0.241E-02  0.803E-03  0.803E-03  0.803E-03
   5.927  0.173E-02  0.578E-03  0.578E-03  0.578E-03
   5.937  0.117E-02  0.390E-03  0.390E-03  0.390E-03
   5.947  0.717E-03  0.239E-03  0.239E-03  0.239E-03
   5.957  0.374E-03  0.125E-03  0.125E-03  0.125E-03
   5.967  0.142E-03  0.473E-04  0.473E-04  0.473E-04
   5.977  0.201E-04  0.669E-05  0.669E-05  0.669E-05
   5.987  0.000E+00  0.000E+00  0.000E+00  0.000E+00
   5.997  0.000E+00  0.000E+00  0.000E+00  0.000E+00
   6.007  0.000E+00  0.000E+00  0.000E+00  0.000E+00
   6.017  0.000E+00  0.000E+00  0.000E+00  0.000E+00
   6.027  0.000E+00  0.000E+00  0.000E+00  0.000E+00
   6.037  0.000E+00  0.000E+00  0.000E+00  0.000E+00
   6.047  0.000E+00  0.000E+00  0.000E+00  0.000E+00
   6.057  0.000E+00  0.000E+00  0.000E+00  0.000E+00
   6.067  0.000E+00  0.000E+00  0.000E+00  0.000E+00
   6.077  0.000E+00  0.000E+00  0.000E+00  0.000E+00
   6.087  0.000E+00  0.000E+00  0.000E+00  0.000E+00
   6.097  0.000E+00  0.000E+00  0.000E+00  0.000E+00
   6.107  0.000E+00  0.000E+00  0.000E+00  0.000E+00
   6.117  0.000E+00  0.000E+00  0.000E+00  0.000E+00
   6.127  0.000E+00  0.000E+00  0.000E+00  0.000E+00
   6.137  0.000E+00  0.000E+00  0.000E+00  0.000E+00
   6.147  0.000E+00  0.000E+00  0.000E+00  0.000E+00
   6.157  0.000E+00  0.000E+00  0.000E+00  0.000E+00
   6.167  0.000E+00  0.000E+00  0.000E+00  0.000E+00
   6.177  0.000E+00  0.000E+00  0.000E+00  0.000E+00
   6.187  0.000E+00  0.000E+00  0.000E+00  0.000E+00
   6.197  0.000E+00  0.000E+00  0.000E+00  0.000E+00
   6.207  0.000E+00  0.000E+00  0.000E+00  0.000E+00
   6.217  0.000E+00  0.000E+00  0.000E+00  0.000E+00
   6.227  0.000E+00  0.000E+00  0.000E+00  0.000E+00
   6.237  0.000E+00  0.000E+00  0.000E+00  0.000E+00
   6.247  0.000E+00  0.000E+00  0.000E+00  0.000E+00
   6.257  0.000E+00  0.000E+00  0.000E+00  0.000E+00
   6.267  0.000E+00  0.000E+00  0.000E+00  0.000E+00
   6.277  0.000E+00  0.000E+00  0.000E+00  0.000E+00
   6.287  0.000E+00  0.000E+00  0.000E+00  0.000E+00
   6.297  0.000E+00  0.000E+00  0.000E+00  0.000E+00
   6.307  0.000E+00  0.000E+00  0.000E+00  0.000E+00
   6.317  0.000E+00  0.000E+00  0.000E+00  0.000E+00
   6.327  0.000E+00  0.000E+00  0.000E+00  0.000E+00
   6.337  0.000E+00  0.000E+00  0.000E+00  0.000E+00
   6.347  0.000E+00  0.000E+00  0.000E+00  0.000E+00
   6.357  0.000E+00  0.000E+00  0.000E+00  0.000E+00
   6.367  0.000E+00  0.000E+00  0.000E+00  0.000E+00
   6.377  0.000E+00  0.000E+00  0.000E+00  0.000E+00
   6.387  0.000E+00  0.000E+00  0.000E+00  0.000E+00
   6.397  0.000E+00  0.000E+00  0.000E+00  0.000E+00
   6.407  0.000E+00  0.000E+00  0.000E+00  0.000E+00
   6.417  0.000E+00  0.000E+00  0.000E+00  0.000E+00
   6.427  0.000E+00  0.000E+00  0.000E+00  0.000E+00
   6.437  0.000E+00  0.000E+00  0.000E+00  0.000E+00
   6.447  0.000E+00  0.000E+00  0.000E+00  0.000E+00
   6.457  0.000E+00  0.000E+00  0.000E+00  0.000E+00
   6.467  0.113E-02  0.375E-03  0.375E-03  0.375E-03
   6.477  0.320E-02  0.107E-02  0.107E-02  0.107E-02
   6.487  0.521E-02  0.174E-02  0.174E-02  0.174E-02
   6.497  0.715E-02  0.238E-02  0.238E-02  0.238E-02
   6.507  0.903E-02  0.301E-02  0.301E-02  0.301E-02
   6.517  0.108E-01  0.361E-02  0.361E-02  0.361E-02
   6.527  0.126E-01  0.420E-02  0.420E-02  0.420E-02
   6.537  0.143E-01  0.476E-02  0.476E-02  0.476E-02
   6.547  0.159E-01  0.530E-02  0.530E-02  0.530E-02
   6.557  0.175E-01  0.583E-02  0.583E-02  0.583E-02
   6.567  0.190E-01  0.633E-02  0.633E-02  0.633E-02
   6.577  0.204E-01  0.681E-02  0.681E-02  0.681E-02
   6.587  0.218E-01  0.727E-02  0.727E-02  0.727E-02
   6.597  0.231E-01  0.772E-02  0.772E-02  0.772E-02
   6.607  0.244E-01  0.814E-02  0.814E-02  0.814E-02
   6.617  0.256E-01  0.855E-02  0.855E-02  0.855E-02
   6.627  0.268E-01  0.893E-02  0.893E-02  0.893E-02
   6.637  0.279E-01  0.930E-02  0.930E-02  0.930E-02
   6.647  0.290E-01  0.965E-02  0.965E-02  0.965E-02
   6.657  0.300E-01  0.999E-02  0.999E-02  0.999E-02
   6.667  0.309E-01  0.103E-01  0.103E-01  0.103E-01
   6.677  0.318E-01  0.106E-01  0.106E-01  0.106E-01
   6.687  0.327E-01  0.109E-01  0.109E-01  0.109E-01
   6.697  0.334E-01  0.111E-01  0.111E-01  0.111E-01
   6.707  0.342E-01  0.114E-01  0.114E-01  0.114E-01
   6.717  0.349E-01  0.116E-01  0.116E-01  0.116E-01
   6.727  0.355E-01  0.118E-01  0.118E-01  0.118E-01
   6.737  0.362E-01  0.121E-01  0.121E-01  0.121E-01
   6.747  0.367E-01  0.122E-01  0.122E-01  0.122E-01
   6.757  0.372E-01  0.124E-01  0.124E-01  0.124E-01
   6.767  0.386E-01  0.129E-01  0.129E-01  0.129E-01
   6.777  0.404E-01  0.135E-01  0.135E-01  0.135E-01
   6.787  0.422E-01  0.141E-01  0.141E-01  0.141E-01
   6.797  0.441E-01  0.147E-01  0.147E-01  0.147E-01
   6.807  0.460E-01  0.153E-01  0.153E-01  0.153E-01
   6.817  0.480E-01  0.160E-01  0.160E-01  0.160E-01
   6.827  0.500E-01  0.167E-01  0.167E-01  0.167E-01
   6.837  0.519E-01  0.173E-01  0.173E-01  0.173E-01
   6.847  0.539E-01  0.180E-01  0.180E-01  0.180E-01
   6.857  0.557E-01  0.186E-01  0.186E-01  0.186E-01
   6.867  0.575E-01  0.192E-01  0.192E-01  0.192E-01
   6.877  0.593E-01  0.198E-01  0.198E-01  0.198E-01
   6.887  0.610E-01  0.203E-01  0.203E-01  0.203E-01
   6.897  0.627E-01  0.209E-01  0.209E-01  0.209E-01
   6.907  0.643E-01  0.214E-01  0.214E-01  0.214E-01
   6.917  0.658E-01  0.219E-01  0.219E-01  0.219E-01
   6.927  0.674E-01  0.225E-01  0.225E-01  0.225E-01
   6.937  0.688E-01  0.229E-01  0.229E-01  0.229E-01
   6.947  0.702E-01  0.234E-01  0.234E-01  0.234E-01
   6.957  0.716E-01  0.239E-01  0.239E-01  0.239E-01
   6.967  0.729E-01  0.243E-01  0.243E-01  0.243E-01
   6.977  0.743E-01  0.248E-01  0.248E-01  0.248E-01
   6.987  0.757E-01  0.252E-01  0.252E-01  0.252E-01
   6.997  0.770E-01  0.257E-01  0.257E-01  0.257E-01
   7.007  0.783E-01  0.261E-01  0.261E-01  0.261E-01
   7.017  0.795E-01  0.265E-01  0.265E-01  0.265E-01
   7.027  0.807E-01  0.269E-01  0.269E-01  0.269E-01
   7.037  0.819E-01  0.273E-01  0.273E-01  0.273E-01
   7.047  0.830E-01  0.277E-01  0.277E-01  0.277E-01
   7.057  0.841E-01  0.280E-01  0.280E-01  0.280E-01
   7.067  0.852E-01  0.284E-01  0.284E-01  0.284E-01
   7.077  0.862E-01  0.287E-01  0.287E-01  0.287E-01
   7.087  0.871E-01  0.290E-01  0.290E-01  0.290E-01
   7.097  0.881E-01  0.294E-01  0.294E-01  0.294E-01
   7.107  0.895E-01  0.298E-01  0.298E-01  0.298E-01
   7.117  0.913E-01  0.304E-01  0.304E-01  0.304E-01
   7.127  0.931E-01  0.310E-01  0.310E-01  0.310E-01
   7.137  0.948E-01  0.316E-01  0.316E-01  0.316E-01
   7.147  0.966E-01  0.322E-01  0.322E-01  0.322E-01
   7.157  0.984E-01  0.328E-01  0.328E-01  0.328E-01
   7.167  0.100E+00  0.334E-01  0.334E-01  0.334E-01
   7.177  0.102E+00  0.340E-01  0.340E-01  0.340E-01
   7.187  0.104E+00  0.346E-01  0.346E-01  0.346E-01
   7.197  0.106E+00  0.352E-01  0.352E-01  0.352E-01
   7.207  0.107E+00  0.358E-01  0.358E-01  0.358E-01
   7.217  0.109E+00  0.364E-01  0.364E-01  0.364E-01
   7.227  0.111E+00  0.370E-01  0.370E-01  0.370E-01
   7.237  0.113E+00  0.376E-01  0.376E-01  0.376E-01
   7.247  0.115E+00  0.382E-01  0.382E-01  0.382E-01
   7.257  0.116E+00  0.388E-01  0.388E-01  0.388E-01
   7.267  0.118E+00  0.394E-01  0.394E-01  0.394E-01
   7.277  0.120E+00  0.400E-01  0.400E-01  0.400E-01
   7.287  0.122E+00  0.406E-01  0.406E-01  0.406E-01
   7.297  0.124E+00  0.412E-01  0.412E-01  0.412E-01
   7.307  0.125E+00  0.418E-01  0.418E-01  0.418E-01
   7.317  0.127E+00  0.424E-01  0.424E-01  0.424E-01
   7.327  0.129E+00  0.430E-01  0.430E-01  0.430E-01
   7.337  0.131E+00  0.436E-01  0.436E-01  0.436E-01
   7.347  0.133E+00  0.442E-01  0.442E-01  0.442E-01
   7.357  0.134E+00  0.448E-01  0.448E-01  0.448E-01
   7.367  0.136E+00  0.454E-01  0.454E-01  0.454E-01
   7.377  0.138E+00  0.461E-01  0.461E-01  0.461E-01
   7.387  0.140E+00  0.467E-01  0.467E-01  0.467E-01
   7.397  0.142E+00  0.473E-01  0.473E-01  0.473E-01
   7.407  0.144E+00  0.480E-01  0.480E-01  0.480E-01
   7.417  0.146E+00  0.488E-01  0.488E-01  0.488E-01
   7.427  0.149E+00  0.496E-01  0.496E-01  0.496E-01
   7.437  0.151E+00  0.504E-01  0.504E-01  0.504E-01
   7.447  0.154E+00  0.513E-01  0.513E-01  0.513E-01
   7.457  0.156E+00  0.521E-01  0.521E-01  0.521E-01
   7.467  0.159E+00  0.530E-01  0.530E-01  0.530E-01
   7.477  0.162E+00  0.539E-01  0.539E-01  0.539E-01
   7.487  0.165E+00  0.549E-01  0.549E-01  0.549E-01
   7.497  0.168E+00  0.559E-01  0.559E-01  0.559E-01
   7.507  0.171E+00  0.568E-01  0.568E-01  0.568E-01
   7.517  0.174E+00  0.579E-01  0.579E-01  0.579E-01
   7.527  0.177E+00  0.589E-01  0.589E-01  0.589E-01
   7.537  0.180E+00  0.600E-01  0.600E-01  0.600E-01
   7.547  0.183E+00  0.610E-01  0.610E-01  0.610E-01
   7.557  0.186E+00  0.622E-01  0.622E-01  0.622E-01
   7.567  0.190E+00  0.633E-01  0.633E-01  0.633E-01
   7.577  0.193E+00  0.645E-01  0.645E-01  0.645E-01
   7.587  0.197E+00  0.657E-01  0.657E-01  0.657E-01
   7.597  0.201E+00  0.669E-01  0.669E-01  0.669E-01
   7.607  0.204E+00  0.681E-01  0.681E-01  0.681E-01
   7.617  0.208E+00  0.694E-01  0.694E-01  0.694E-01
   7.627  0.212E+00  0.707E-01  0.707E-01  0.707E-01
   7.637  0.216E+00  0.721E-01  0.721E-01  0.721E-01
   7.647  0.220E+00  0.734E-01  0.734E-01  0.734E-01
   7.657  0.224E+00  0.748E-01  0.748E-01  0.748E-01
   7.667  0.229E+00  0.763E-01  0.763E-01  0.763E-01
   7.677  0.233E+00  0.777E-01  0.777E-01  0.777E-01
   7.687  0.238E+00  0.792E-01  0.792E-01  0.792E-01
   7.697  0.242E+00  0.807E-01  0.807E-01  0.807E-01
   7.707  0.247E+00  0.823E-01  0.823E-01  0.823E-01
   7.717  0.252E+00  0.839E-01  0.839E-01  0.839E-01
   7.727  0.256E+00  0.855E-01  0.855E-01  0.855E-01
   7.737  0.261E+00  0.871E-01  0.871E-01  0.871E-01
   7.747  0.266E+00  0.888E-01  0.888E-01  0.888E-01
   7.757  0.272E+00  0.906E-01  0.906E-01  0.906E-01
   7.767  0.277E+00  0.924E-01  0.924E-01  0.924E-01
   7.777  0.283E+00  0.944E-01  0.944E-01  0.944E-01
   7.787  0.289E+00  0.964E-01  0.964E-01  0.964E-01
   7.797  0.295E+00  0.985E-01  0.985E-01  0.985E-01
   7.807  0.302E+00  0.101E+00  0.101E+00  0.101E+00
   7.817  0.309E+00  0.103E+00  0.103E+00  0.103E+00
   7.827  0.317E+00  0.106E+00  0.106E+00  0.106E+00
   7.837  0.325E+00  0.108E+00  0.108E+00  0.108E+00
   7.847  0.333E+00  0.111E+00  0.111E+00  0.111E+00
   7.857  0.342E+00  0.114E+00  0.114E+00  0.114E+00
   7.867  0.351E+00  0.117E+00  0.117E+00  0.117E+00
   7.877  0.360E+00  0.120E+00  0.120E+00  0.120E+00
   7.887  0.370E+00  0.123E+00  0.123E+00  0.123E+00
   7.897  0.381E+00  0.127E+00  0.127E+00  0.127E+00
   7.907  0.392E+00  0.131E+00  0.131E+00  0.131E+00
   7.917  0.403E+00  0.134E+00  0.134E+00  0.134E+00
   7.927  0.415E+00  0.138E+00  0.138E+00  0.138E+00
   7.937  0.427E+00  0.142E+00  0.142E+00  0.142E+00
   7.947  0.439E+00  0.146E+00  0.146E+00  0.146E+00
   7.957  0.453E+00  0.151E+00  0.151E+00  0.151E+00
   7.967  0.466E+00  0.155E+00  0.155E+00  0.155E+00
   7.977  0.480E+00  0.160E+00  0.160E+00  0.160E+00
   7.987  0.492E+00  0.164E+00  0.164E+00  0.164E+00
   7.997  0.503E+00  0.168E+00  0.168E+00  0.168E+00
   8.007  0.513E+00  0.171E+00  0.171E+00  0.171E+00
   8.017  0.521E+00  0.174E+00  0.174E+00  0.174E+00
   8.027  0.530E+00  0.177E+00  0.177E+00  0.177E+00
   8.037  0.537E+00  0.179E+00  0.179E+00  0.179E+00
   8.047  0.544E+00  0.181E+00  0.181E+00  0.181E+00
   8.057  0.550E+00  0.183E+00  0.183E+00  0.183E+00
   8.067  0.554E+00  0.185E+00  0.185E+00  0.185E+00
   8.077  0.559E+00  0.186E+00  0.186E+00  0.186E+00
   8.087  0.562E+00  0.187E+00  0.187E+00  0.187E+00
   8.097  0.564E+00  0.188E+00  0.188E+00  0.188E+00
   8.107  0.566E+00  0.189E+00  0.189E+00  0.189E+00
   8.117  0.570E+00  0.190E+00  0.190E+00  0.190E+00
   8.127  0.574E+00  0.191E+00  0.191E+00  0.191E+00
   8.137  0.578E+00  0.193E+00  0.193E+00  0.193E+00
   8.147  0.582E+00  0.194E+00  0.194E+00  0.194E+00
   8.157  0.585E+00  0.195E+00  0.195E+00  0.195E+00
   8.167  0.589E+00  0.196E+00  0.196E+00  0.196E+00
   8.177  0.592E+00  0.197E+00  0.197E+00  0.197E+00
   8.187  0.595E+00  0.198E+00  0.198E+00  0.198E+00
   8.197  0.598E+00  0.199E+00  0.199E+00  0.199E+00
   8.207  0.601E+00  0.200E+00  0.200E+00  0.200E+00
   8.217  0.603E+00  0.201E+00  0.201E+00  0.201E+00
   8.227  0.606E+00  0.202E+00  0.202E+00  0.202E+00
   8.237  0.608E+00  0.203E+00  0.203E+00  0.203E+00
   8.247  0.610E+00  0.203E+00  0.203E+00  0.203E+00
   8.257  0.612E+00  0.204E+00  0.204E+00  0.204E+00
   8.267  0.614E+00  0.205E+00  0.205E+00  0.205E+00
   8.277  0.615E+00  0.205E+00  0.205E+00  0.205E+00
   8.287  0.617E+00  0.206E+00  0.206E+00  0.206E+00
   8.297  0.613E+00  0.204E+00  0.204E+00  0.204E+00
   8.307  0.608E+00  0.203E+00  0.203E+00  0.203E+00
   8.317  0.604E+00  0.201E+00  0.201E+00  0.201E+00
   8.327  0.600E+00  0.200E+00  0.200E+00  0.200E+00
   8.337  0.596E+00  0.199E+00  0.199E+00  0.199E+00
   8.347  0.592E+00  0.197E+00  0.197E+00  0.197E+00
   8.357  0.589E+00  0.196E+00  0.196E+00  0.196E+00
   8.367  0.585E+00  0.195E+00  0.195E+00  0.195E+00
   8.377  0.581E+00  0.194E+00  0.194E+00  0.194E+00
   8.387  0.578E+00  0.193E+00  0.193E+00  0.193E+00
   8.397  0.575E+00  0.192E+00  0.192E+00  0.192E+00
   8.407  0.572E+00  0.191E+00  0.191E+00  0.191E+00
   8.417  0.569E+00  0.190E+00  0.190E+00  0.190E+00
   8.427  0.566E+00  0.189E+00  0.189E+00  0.189E+00
   8.437  0.563E+00  0.188E+00  0.188E+00  0.188E+00
   8.447  0.561E+00  0.187E+00  0.187E+00  0.187E+00
   8.457  0.559E+00  0.186E+00  0.186E+00  0.186E+00
   8.467  0.558E+00  0.186E+00  0.186E+00  0.186E+00
   8.477  0.557E+00  0.186E+00  0.186E+00  0.186E+00
   8.487  0.555E+00  0.185E+00  0.185E+00  0.185E+00
   8.497  0.553E+00  0.184E+00  0.184E+00  0.184E+00
   8.507  0.549E+00  0.183E+00  0.183E+00  0.183E+00
   8.517  0.537E+00  0.179E+00  0.179E+00  0.179E+00
   8.527  0.526E+00  0.175E+00  0.175E+00  0.175E+00
   8.537  0.516E+00  0.172E+00  0.172E+00  0.172E+00
   8.547  0.506E+00  0.169E+00  0.169E+00  0.169E+00
   8.557  0.497E+00  0.166E+00  0.166E+00  0.166E+00
   8.567  0.489E+00  0.163E+00  0.163E+00  0.163E+00
   8.577  0.481E+00  0.160E+00  0.160E+00  0.160E+00
   8.587  0.472E+00  0.157E+00  0.157E+00  0.157E+00
   8.597  0.463E+00  0.154E+00  0.154E+00  0.154E+00
   8.607  0.455E+00  0.152E+00  0.152E+00  0.152E+00
   8.617  0.447E+00  0.149E+00  0.149E+00  0.149E+00
   8.627  0.398E+00  0.133E+00  0.133E+00  0.133E+00
   8.637  0.389E+00  0.130E+00  0.130E+00  0.130E+00
   8.647  0.380E+00  0.127E+00  0.127E+00  0.127E+00
   8.657  0.370E+00  0.123E+00  0.123E+00  0.123E+00
   8.667  0.361E+00  0.120E+00  0.120E+00  0.120E+00
   8.677  0.352E+00  0.117E+00  0.117E+00  0.117E+00
   8.687  0.343E+00  0.114E+00  0.114E+00  0.114E+00
   8.697  0.334E+00  0.111E+00  0.111E+00  0.111E+00
   8.707  0.325E+00  0.108E+00  0.108E+00  0.108E+00
   8.717  0.316E+00  0.105E+00  0.105E+00  0.105E+00
   8.727  0.307E+00  0.102E+00  0.102E+00  0.102E+00
   8.737  0.298E+00  0.993E-01  0.993E-01  0.993E-01
   8.747  0.289E+00  0.964E-01  0.964E-01  0.964E-01
   8.757  0.280E+00  0.935E-01  0.935E-01  0.935E-01
   8.767  0.272E+00  0.906E-01  0.906E-01  0.906E-01
   8.777  0.263E+00  0.877E-01  0.877E-01  0.877E-01
   8.787  0.254E+00  0.848E-01  0.848E-01  0.848E-01
   8.797  0.246E+00  0.819E-01  0.819E-01  0.819E-01
   8.807  0.237E+00  0.791E-01  0.791E-01  0.791E-01
   8.817  0.229E+00  0.762E-01  0.762E-01  0.762E-01
   8.827  0.220E+00  0.734E-01  0.734E-01  0.734E-01
   8.837  0.212E+00  0.706E-01  0.706E-01  0.706E-01
   8.847  0.203E+00  0.678E-01  0.678E-01  0.678E-01
   8.857  0.195E+00  0.650E-01  0.650E-01  0.650E-01
   8.867  0.187E+00  0.623E-01  0.623E-01  0.623E-01
   8.877  0.179E+00  0.595E-01  0.595E-01  0.595E-01
   8.887  0.170E+00  0.568E-01  0.568E-01  0.568E-01
   8.897  0.162E+00  0.541E-01  0.541E-01  0.541E-01
   8.907  0.154E+00  0.514E-01  0.514E-01  0.514E-01
   8.917  0.146E+00  0.487E-01  0.487E-01  0.487E-01
   8.927  0.138E+00  0.460E-01  0.460E-01  0.460E-01
   8.937  0.130E+00  0.432E-01  0.432E-01  0.432E-01
   8.947  0.121E+00  0.405E-01  0.405E-01  0.405E-01
   8.957  0.124E+00  0.414E-01  0.414E-01  0.414E-01
   8.967  0.127E+00  0.423E-01  0.423E-01  0.423E-01
   8.977  0.130E+00  0.433E-01  0.433E-01  0.433E-01
   8.987  0.133E+00  0.443E-01  0.443E-01  0.443E-01
   8.997  0.137E+00  0.456E-01  0.456E-01  0.456E-01
   9.007  0.142E+00  0.474E-01  0.474E-01  0.474E-01
   9.017  0.148E+00  0.493E-01  0.493E-01  0.493E-01
   9.027  0.154E+00  0.512E-01  0.512E-01  0.512E-01
   9.037  0.159E+00  0.531E-01  0.531E-01  0.531E-01
   9.047  0.165E+00  0.551E-01  0.551E-01  0.551E-01
   9.057  0.171E+00  0.571E-01  0.571E-01  0.571E-01
   9.067  0.177E+00  0.591E-01  0.591E-01  0.591E-01
   9.077  0.183E+00  0.612E-01  0.612E-01  0.612E-01
   9.087  0.190E+00  0.632E-01  0.632E-01  0.632E-01
   9.097  0.196E+00  0.653E-01  0.653E-01  0.653E-01
   9.107  0.202E+00  0.675E-01  0.675E-01  0.675E-01
   9.117  0.209E+00  0.696E-01  0.696E-01  0.696E-01
   9.127  0.215E+00  0.718E-01  0.718E-01  0.718E-01
   9.137  0.222E+00  0.739E-01  0.739E-01  0.739E-01
   9.147  0.228E+00  0.762E-01  0.762E-01  0.762E-01
   9.157  0.235E+00  0.784E-01  0.784E-01  0.784E-01
   9.167  0.242E+00  0.806E-01  0.806E-01  0.806E-01
   9.177  0.249E+00  0.829E-01  0.829E-01  0.829E-01
   9.187  0.256E+00  0.852E-01  0.852E-01  0.852E-01
   9.197  0.262E+00  0.875E-01  0.875E-01  0.875E-01
   9.207  0.269E+00  0.898E-01  0.898E-01  0.898E-01
   9.217  0.276E+00  0.921E-01  0.921E-01  0.921E-01
   9.227  0.283E+00  0.944E-01  0.944E-01  0.944E-01
   9.237  0.290E+00  0.967E-01  0.967E-01  0.967E-01
   9.247  0.297E+00  0.990E-01  0.990E-01  0.990E-01
   9.257  0.304E+00  0.101E+00  0.101E+00  0.101E+00
   9.267  0.311E+00  0.104E+00  0.104E+00  0.104E+00
   9.277  0.317E+00  0.106E+00  0.106E+00  0.106E+00
   9.287  0.324E+00  0.108E+00  0.108E+00  0.108E+00
   9.297  0.336E+00  0.112E+00  0.112E+00  0.112E+00
   9.307  0.350E+00  0.117E+00  0.117E+00  0.117E+00
   9.317  0.364E+00  0.121E+00  0.121E+00  0.121E+00
   9.327  0.379E+00  0.126E+00  0.126E+00  0.126E+00
   9.337  0.394E+00  0.131E+00  0.131E+00  0.131E+00
   9.347  0.410E+00  0.137E+00  0.137E+00  0.137E+00
   9.357  0.426E+00  0.142E+00  0.142E+00  0.142E+00
   9.367  0.452E+00  0.151E+00  0.151E+00  0.151E+00
   9.377  0.479E+00  0.160E+00  0.160E+00  0.160E+00
   9.387  0.507E+00  0.169E+00  0.169E+00  0.169E+00
   9.397  0.535E+00  0.178E+00  0.178E+00  0.178E+00
   9.407  0.564E+00  0.188E+00  0.188E+00  0.188E+00
   9.417  0.593E+00  0.198E+00  0.198E+00  0.198E+00
   9.427  0.623E+00  0.208E+00  0.208E+00  0.208E+00
   9.437  0.654E+00  0.218E+00  0.218E+00  0.218E+00
   9.447  0.685E+00  0.228E+00  0.228E+00  0.228E+00
   9.457  0.717E+00  0.239E+00  0.239E+00  0.239E+00
   9.467  0.749E+00  0.250E+00  0.250E+00  0.250E+00
   9.477  0.780E+00  0.260E+00  0.260E+00  0.260E+00
   9.487  0.812E+00  0.271E+00  0.271E+00  0.271E+00
   9.497  0.844E+00  0.281E+00  0.281E+00  0.281E+00
   9.507  0.875E+00  0.292E+00  0.292E+00  0.292E+00
   9.517  0.906E+00  0.302E+00  0.302E+00  0.302E+00
   9.527  0.937E+00  0.312E+00  0.312E+00  0.312E+00
   9.537  0.969E+00  0.323E+00  0.323E+00  0.323E+00
   9.547  0.100E+01  0.333E+00  0.333E+00  0.333E+00
   9.557  0.103E+01  0.344E+00  0.344E+00  0.344E+00
   9.567  0.106E+01  0.354E+00  0.354E+00  0.354E+00
   9.577  0.109E+01  0.364E+00  0.364E+00  0.364E+00
   9.587  0.112E+01  0.375E+00  0.375E+00  0.375E+00
   9.597  0.115E+01  0.385E+00  0.385E+00  0.385E+00
   9.607  0.115E+01  0.383E+00  0.383E+00  0.383E+00
   9.617  0.113E+01  0.375E+00  0.375E+00  0.375E+00
   9.627  0.110E+01  0.368E+00  0.368E+00  0.368E+00
   9.637  0.108E+01  0.361E+00  0.361E+00  0.361E+00
   9.647  0.107E+01  0.355E+00  0.355E+00  0.355E+00
   9.657  0.105E+01  0.350E+00  0.350E+00  0.350E+00
   9.667  0.103E+01  0.345E+00  0.345E+00  0.345E+00
   9.677  0.102E+01  0.341E+00  0.341E+00  0.341E+00
   9.687  0.101E+01  0.337E+00  0.337E+00  0.337E+00
   9.697  0.105E+01  0.349E+00  0.349E+00  0.349E+00
   9.707  0.108E+01  0.361E+00  0.361E+00  0.361E+00
   9.717  0.109E+01  0.364E+00  0.364E+00  0.364E+00
   9.727  0.107E+01  0.357E+00  0.357E+00  0.357E+00
   9.737  0.101E+01  0.336E+00  0.336E+00  0.336E+00
   9.747  0.902E+00  0.301E+00  0.301E+00  0.301E+00
   9.757  0.769E+00  0.256E+00  0.256E+00  0.256E+00
   9.767  0.655E+00  0.218E+00  0.218E+00  0.218E+00
   9.777  0.564E+00  0.188E+00  0.188E+00  0.188E+00
   9.787  0.500E+00  0.167E+00  0.167E+00  0.167E+00
   9.797  0.469E+00  0.156E+00  0.156E+00  0.156E+00
   9.807  0.464E+00  0.155E+00  0.155E+00  0.155E+00
   9.817  0.456E+00  0.152E+00  0.152E+00  0.152E+00
   9.827  0.448E+00  0.149E+00  0.149E+00  0.149E+00
   9.837  0.442E+00  0.147E+00  0.147E+00  0.147E+00
   9.847  0.436E+00  0.145E+00  0.145E+00  0.145E+00
   9.857  0.432E+00  0.144E+00  0.144E+00  0.144E+00
   9.867  0.429E+00  0.143E+00  0.143E+00  0.143E+00
   9.877  0.426E+00  0.142E+00  0.142E+00  0.142E+00
   9.887  0.424E+00  0.141E+00  0.141E+00  0.141E+00
   9.897  0.422E+00  0.141E+00  0.141E+00  0.141E+00
   9.907  0.421E+00  0.140E+00  0.140E+00  0.140E+00
   9.917  0.419E+00  0.140E+00  0.140E+00  0.140E+00
   9.927  0.417E+00  0.139E+00  0.139E+00  0.139E+00
   9.937  0.416E+00  0.139E+00  0.139E+00  0.139E+00
   9.947  0.414E+00  0.138E+00  0.138E+00  0.138E+00
   9.957  0.413E+00  0.138E+00  0.138E+00  0.138E+00
   9.967  0.412E+00  0.137E+00  0.137E+00  0.137E+00
   9.977  0.411E+00  0.137E+00  0.137E+00  0.137E+00
   9.987  0.410E+00  0.137E+00  0.137E+00  0.137E+00
   9.997  0.409E+00  0.136E+00  0.136E+00  0.136E+00
  10.007  0.408E+00  0.136E+00  0.136E+00  0.136E+00
  10.017  0.407E+00  0.136E+00  0.136E+00  0.136E+00
  10.027  0.406E+00  0.135E+00  0.135E+00  0.135E+00
  10.037  0.405E+00  0.135E+00  0.135E+00  0.135E+00
  10.047  0.404E+00  0.135E+00  0.135E+00  0.135E+00
  10.057  0.402E+00  0.134E+00  0.134E+00  0.134E+00
  10.067  0.401E+00  0.134E+00  0.134E+00  0.134E+00
  10.077  0.399E+00  0.133E+00  0.133E+00  0.133E+00
  10.087  0.397E+00  0.132E+00  0.132E+00  0.132E+00
  10.097  0.395E+00  0.132E+00  0.132E+00  0.132E+00
  10.107  0.392E+00  0.131E+00  0.131E+00  0.131E+00
  10.117  0.390E+00  0.130E+00  0.130E+00  0.130E+00
  10.127  0.388E+00  0.129E+00  0.129E+00  0.129E+00
  10.137  0.385E+00  0.128E+00  0.128E+00  0.128E+00
  10.147  0.382E+00  0.127E+00  0.127E+00  0.127E+00
  10.157  0.379E+00  0.126E+00  0.126E+00  0.126E+00
  10.167  0.376E+00  0.125E+00  0.125E+00  0.125E+00
  10.177  0.373E+00  0.124E+00  0.124E+00  0.124E+00
  10.187  0.370E+00  0.123E+00  0.123E+00  0.123E+00
  10.197  0.366E+00  0.122E+00  0.122E+00  0.122E+00
  10.207  0.363E+00  0.121E+00  0.121E+00  0.121E+00
  10.217  0.359E+00  0.120E+00  0.120E+00  0.120E+00
  10.227  0.355E+00  0.118E+00  0.118E+00  0.118E+00
  10.237  0.352E+00  0.117E+00  0.117E+00  0.117E+00
  10.247  0.348E+00  0.116E+00  0.116E+00  0.116E+00
  10.257  0.344E+00  0.115E+00  0.115E+00  0.115E+00
  10.267  0.340E+00  0.113E+00  0.113E+00  0.113E+00
  10.277  0.336E+00  0.112E+00  0.112E+00  0.112E+00
  10.287  0.332E+00  0.111E+00  0.111E+00  0.111E+00
  10.297  0.327E+00  0.109E+00  0.109E+00  0.109E+00
  10.307  0.323E+00  0.108E+00  0.108E+00  0.108E+00
  10.317  0.319E+00  0.106E+00  0.106E+00  0.106E+00
  10.327  0.314E+00  0.105E+00  0.105E+00  0.105E+00
  10.337  0.310E+00  0.103E+00  0.103E+00  0.103E+00
  10.347  0.306E+00  0.102E+00  0.102E+00  0.102E+00
  10.357  0.301E+00  0.100E+00  0.100E+00  0.100E+00
  10.367  0.297E+00  0.989E-01  0.989E-01  0.989E-01
  10.377  0.292E+00  0.973E-01  0.973E-01  0.973E-01
  10.387  0.287E+00  0.958E-01  0.958E-01  0.958E-01
  10.397  0.283E+00  0.943E-01  0.943E-01  0.943E-01
  10.407  0.278E+00  0.927E-01  0.927E-01  0.927E-01
  10.417  0.274E+00  0.912E-01  0.912E-01  0.912E-01
  10.427  0.269E+00  0.896E-01  0.896E-01  0.896E-01
  10.437  0.265E+00  0.884E-01  0.884E-01  0.884E-01
  10.447  0.264E+00  0.881E-01  0.881E-01  0.881E-01
  10.457  0.264E+00  0.879E-01  0.879E-01  0.879E-01
  10.467  0.263E+00  0.877E-01  0.877E-01  0.877E-01
  10.477  0.262E+00  0.875E-01  0.875E-01  0.875E-01
  10.487  0.262E+00  0.874E-01  0.874E-01  0.874E-01
  10.497  0.262E+00  0.873E-01  0.873E-01  0.873E-01
  10.507  0.262E+00  0.872E-01  0.872E-01  0.872E-01
  10.517  0.261E+00  0.872E-01  0.872E-01  0.872E-01
  10.527  0.261E+00  0.872E-01  0.872E-01  0.872E-01
  10.537  0.262E+00  0.872E-01  0.872E-01  0.872E-01
  10.547  0.262E+00  0.873E-01  0.873E-01  0.873E-01
  10.557  0.262E+00  0.874E-01  0.874E-01  0.874E-01
  10.567  0.263E+00  0.875E-01  0.875E-01  0.875E-01
  10.577  0.263E+00  0.877E-01  0.877E-01  0.877E-01
  10.587  0.264E+00  0.879E-01  0.879E-01  0.879E-01
  10.597  0.265E+00  0.882E-01  0.882E-01  0.882E-01
  10.607  0.265E+00  0.885E-01  0.885E-01  0.885E-01
  10.617  0.266E+00  0.888E-01  0.888E-01  0.888E-01
  10.627  0.268E+00  0.892E-01  0.892E-01  0.892E-01
  10.637  0.269E+00  0.896E-01  0.896E-01  0.896E-01
  10.647  0.270E+00  0.900E-01  0.900E-01  0.900E-01
  10.657  0.270E+00  0.899E-01  0.899E-01  0.899E-01
  10.667  0.269E+00  0.897E-01  0.897E-01  0.897E-01
  10.677  0.268E+00  0.895E-01  0.895E-01  0.895E-01
  10.687  0.268E+00  0.892E-01  0.892E-01  0.892E-01
  10.697  0.267E+00  0.889E-01  0.889E-01  0.889E-01
  10.707  0.266E+00  0.886E-01  0.886E-01  0.886E-01
  10.717  0.259E+00  0.864E-01  0.864E-01  0.864E-01
  10.727  0.259E+00  0.862E-01  0.862E-01  0.862E-01
  10.737  0.258E+00  0.861E-01  0.861E-01  0.861E-01
  10.747  0.258E+00  0.860E-01  0.860E-01  0.860E-01
  10.757  0.258E+00  0.861E-01  0.861E-01  0.861E-01
  10.767  0.259E+00  0.862E-01  0.862E-01  0.862E-01
  10.777  0.259E+00  0.865E-01  0.865E-01  0.865E-01
  10.787  0.260E+00  0.866E-01  0.866E-01  0.866E-01
  10.797  0.261E+00  0.869E-01  0.869E-01  0.869E-01
  10.807  0.262E+00  0.873E-01  0.873E-01  0.873E-01
  10.817  0.260E+00  0.868E-01  0.868E-01  0.868E-01
  10.827  0.258E+00  0.861E-01  0.861E-01  0.861E-01
  10.837  0.256E+00  0.854E-01  0.854E-01  0.854E-01
  10.847  0.254E+00  0.848E-01  0.848E-01  0.848E-01
  10.857  0.252E+00  0.841E-01  0.841E-01  0.841E-01
  10.867  0.250E+00  0.834E-01  0.834E-01  0.834E-01
  10.877  0.248E+00  0.828E-01  0.828E-01  0.828E-01
  10.887  0.246E+00  0.821E-01  0.821E-01  0.821E-01
  10.897  0.244E+00  0.815E-01  0.815E-01  0.815E-01
  10.907  0.243E+00  0.808E-01  0.808E-01  0.808E-01
  10.917  0.241E+00  0.802E-01  0.802E-01  0.802E-01
  10.927  0.239E+00  0.796E-01  0.796E-01  0.796E-01
  10.937  0.237E+00  0.790E-01  0.790E-01  0.790E-01
  10.947  0.235E+00  0.783E-01  0.783E-01  0.783E-01
  10.957  0.233E+00  0.777E-01  0.777E-01  0.777E-01
  10.967  0.231E+00  0.772E-01  0.772E-01  0.772E-01
  10.977  0.230E+00  0.766E-01  0.766E-01  0.766E-01
  10.987  0.228E+00  0.760E-01  0.760E-01  0.760E-01
  10.997  0.226E+00  0.754E-01  0.754E-01  0.754E-01
  11.007  0.225E+00  0.749E-01  0.749E-01  0.749E-01
  11.017  0.223E+00  0.744E-01  0.744E-01  0.744E-01
  11.027  0.222E+00  0.738E-01  0.738E-01  0.738E-01
  11.037  0.220E+00  0.733E-01  0.733E-01  0.733E-01
  11.047  0.219E+00  0.728E-01  0.728E-01  0.728E-01
  11.057  0.217E+00  0.724E-01  0.724E-01  0.724E-01
  11.067  0.216E+00  0.719E-01  0.719E-01  0.719E-01
  11.077  0.214E+00  0.714E-01  0.714E-01  0.714E-01
  11.087  0.213E+00  0.710E-01  0.710E-01  0.710E-01
  11.097  0.212E+00  0.706E-01  0.706E-01  0.706E-01
  11.107  0.211E+00  0.702E-01  0.702E-01  0.702E-01
  11.117  0.209E+00  0.698E-01  0.698E-01  0.698E-01
  11.127  0.208E+00  0.695E-01  0.695E-01  0.695E-01
  11.137  0.207E+00  0.691E-01  0.691E-01  0.691E-01
  11.147  0.206E+00  0.688E-01  0.688E-01  0.688E-01
  11.157  0.205E+00  0.685E-01  0.685E-01  0.685E-01
  11.167  0.205E+00  0.682E-01  0.682E-01  0.682E-01
  11.177  0.204E+00  0.680E-01  0.680E-01  0.680E-01
  11.187  0.203E+00  0.677E-01  0.677E-01  0.677E-01
  11.197  0.203E+00  0.675E-01  0.675E-01  0.675E-01
  11.207  0.202E+00  0.673E-01  0.673E-01  0.673E-01
  11.217  0.201E+00  0.671E-01  0.671E-01  0.671E-01
  11.227  0.201E+00  0.670E-01  0.670E-01  0.670E-01
  11.237  0.201E+00  0.669E-01  0.669E-01  0.669E-01
  11.247  0.200E+00  0.668E-01  0.668E-01  0.668E-01
  11.257  0.200E+00  0.667E-01  0.667E-01  0.667E-01
  11.267  0.200E+00  0.667E-01  0.667E-01  0.667E-01
  11.277  0.200E+00  0.667E-01  0.667E-01  0.667E-01
  11.287  0.200E+00  0.667E-01  0.667E-01  0.667E-01
  11.297  0.200E+00  0.667E-01  0.667E-01  0.667E-01
  11.307  0.200E+00  0.668E-01  0.668E-01  0.668E-01
  11.317  0.201E+00  0.669E-01  0.669E-01  0.669E-01
  11.327  0.215E+00  0.718E-01  0.718E-01  0.718E-01
  11.337  0.234E+00  0.781E-01  0.781E-01  0.781E-01
  11.347  0.252E+00  0.842E-01  0.842E-01  0.842E-01
  11.357  0.270E+00  0.900E-01  0.900E-01  0.900E-01
  11.367  0.286E+00  0.954E-01  0.954E-01  0.954E-01
  11.377  0.302E+00  0.101E+00  0.101E+00  0.101E+00
  11.387  0.316E+00  0.105E+00  0.105E+00  0.105E+00
  11.397  0.328E+00  0.109E+00  0.109E+00  0.109E+00
  11.407  0.340E+00  0.113E+00  0.113E+00  0.113E+00
  11.417  0.349E+00  0.116E+00  0.116E+00  0.116E+00
  11.427  0.357E+00  0.119E+00  0.119E+00  0.119E+00
  11.437  0.362E+00  0.121E+00  0.121E+00  0.121E+00
  11.447  0.366E+00  0.122E+00  0.122E+00  0.122E+00
  11.457  0.367E+00  0.122E+00  0.122E+00  0.122E+00
  11.467  0.366E+00  0.122E+00  0.122E+00  0.122E+00
  11.477  0.362E+00  0.121E+00  0.121E+00  0.121E+00
  11.487  0.356E+00  0.119E+00  0.119E+00  0.119E+00
  11.497  0.393E+00  0.131E+00  0.131E+00  0.131E+00
  11.507  0.389E+00  0.130E+00  0.130E+00  0.130E+00
  11.517  0.385E+00  0.128E+00  0.128E+00  0.128E+00
  11.527  0.381E+00  0.127E+00  0.127E+00  0.127E+00
  11.537  0.378E+00  0.126E+00  0.126E+00  0.126E+00
  11.547  0.374E+00  0.125E+00  0.125E+00  0.125E+00
  11.557  0.370E+00  0.123E+00  0.123E+00  0.123E+00
  11.567  0.367E+00  0.122E+00  0.122E+00  0.122E+00
  11.577  0.364E+00  0.121E+00  0.121E+00  0.121E+00
  11.587  0.360E+00  0.120E+00  0.120E+00  0.120E+00
  11.597  0.357E+00  0.119E+00  0.119E+00  0.119E+00
  11.607  0.354E+00  0.118E+00  0.118E+00  0.118E+00
  11.617  0.351E+00  0.117E+00  0.117E+00  0.117E+00
  11.627  0.348E+00  0.116E+00  0.116E+00  0.116E+00
  11.637  0.350E+00  0.117E+00  0.117E+00  0.117E+00
  11.647  0.348E+00  0.116E+00  0.116E+00  0.116E+00
  11.657  0.346E+00  0.115E+00  0.115E+00  0.115E+00
  11.667  0.344E+00  0.115E+00  0.115E+00  0.115E+00
  11.677  0.342E+00  0.114E+00  0.114E+00  0.114E+00
  11.687  0.340E+00  0.113E+00  0.113E+00  0.113E+00
  11.697  0.338E+00  0.113E+00  0.113E+00  0.113E+00
  11.707  0.337E+00  0.112E+00  0.112E+00  0.112E+00
  11.717  0.335E+00  0.112E+00  0.112E+00  0.112E+00
  11.727  0.334E+00  0.111E+00  0.111E+00  0.111E+00
  11.737  0.332E+00  0.111E+00  0.111E+00  0.111E+00
  11.747  0.331E+00  0.110E+00  0.110E+00  0.110E+00
  11.757  0.330E+00  0.110E+00  0.110E+00  0.110E+00
  11.767  0.329E+00  0.110E+00  0.110E+00  0.110E+00
  11.777  0.329E+00  0.110E+00  0.110E+00  0.110E+00
  11.787  0.328E+00  0.109E+00  0.109E+00  0.109E+00
  11.797  0.327E+00  0.109E+00  0.109E+00  0.109E+00
  11.807  0.327E+00  0.109E+00  0.109E+00  0.109E+00
  11.817  0.327E+00  0.109E+00  0.109E+00  0.109E+00
  11.827  0.327E+00  0.109E+00  0.109E+00  0.109E+00
  11.837  0.327E+00  0.109E+00  0.109E+00  0.109E+00
  11.847  0.327E+00  0.109E+00  0.109E+00  0.109E+00
  11.857  0.327E+00  0.109E+00  0.109E+00  0.109E+00
  11.867  0.327E+00  0.109E+00  0.109E+00  0.109E+00
  11.877  0.328E+00  0.109E+00  0.109E+00  0.109E+00
  11.887  0.329E+00  0.110E+00  0.110E+00  0.110E+00
  11.897  0.330E+00  0.110E+00  0.110E+00  0.110E+00
  11.907  0.331E+00  0.110E+00  0.110E+00  0.110E+00
  11.917  0.332E+00  0.111E+00  0.111E+00  0.111E+00
  11.927  0.333E+00  0.111E+00  0.111E+00  0.111E+00
  11.937  0.335E+00  0.112E+00  0.112E+00  0.112E+00
  11.947  0.336E+00  0.112E+00  0.112E+00  0.112E+00
  11.957  0.338E+00  0.113E+00  0.113E+00  0.113E+00
  11.967  0.340E+00  0.113E+00  0.113E+00  0.113E+00
  11.977  0.342E+00  0.114E+00  0.114E+00  0.114E+00
  11.987  0.344E+00  0.115E+00  0.115E+00  0.115E+00
  11.997  0.347E+00  0.116E+00  0.116E+00  0.116E+00
  12.007  0.350E+00  0.117E+00  0.117E+00  0.117E+00
  12.017  0.353E+00  0.118E+00  0.118E+00  0.118E+00
  12.027  0.357E+00  0.119E+00  0.119E+00  0.119E+00
  12.037  0.360E+00  0.120E+00  0.120E+00  0.120E+00
  12.047  0.364E+00  0.121E+00  0.121E+00  0.121E+00
  12.057  0.369E+00  0.123E+00  0.123E+00  0.123E+00
  12.067  0.373E+00  0.124E+00  0.124E+00  0.124E+00
  12.077  0.378E+00  0.126E+00  0.126E+00  0.126E+00
  12.087  0.382E+00  0.127E+00  0.127E+00  0.127E+00
  12.097  0.387E+00  0.129E+00  0.129E+00  0.129E+00
  12.107  0.392E+00  0.131E+00  0.131E+00  0.131E+00
  12.117  0.398E+00  0.133E+00  0.133E+00  0.133E+00
  12.127  0.403E+00  0.134E+00  0.134E+00  0.134E+00
  12.137  0.409E+00  0.136E+00  0.136E+00  0.136E+00
  12.147  0.414E+00  0.138E+00  0.138E+00  0.138E+00
  12.157  0.421E+00  0.140E+00  0.140E+00  0.140E+00
  12.167  0.429E+00  0.143E+00  0.143E+00  0.143E+00
  12.177  0.435E+00  0.145E+00  0.145E+00  0.145E+00
  12.187  0.440E+00  0.147E+00  0.147E+00  0.147E+00
  12.197  0.444E+00  0.148E+00  0.148E+00  0.148E+00
  12.207  0.448E+00  0.149E+00  0.149E+00  0.149E+00
  12.217  0.452E+00  0.151E+00  0.151E+00  0.151E+00
  12.227  0.456E+00  0.152E+00  0.152E+00  0.152E+00
  12.237  0.459E+00  0.153E+00  0.153E+00  0.153E+00
  12.247  0.463E+00  0.154E+00  0.154E+00  0.154E+00
  12.257  0.466E+00  0.155E+00  0.155E+00  0.155E+00
  12.267  0.470E+00  0.157E+00  0.157E+00  0.157E+00
  12.277  0.473E+00  0.158E+00  0.158E+00  0.158E+00
  12.287  0.475E+00  0.158E+00  0.158E+00  0.158E+00
  12.297  0.478E+00  0.159E+00  0.159E+00  0.159E+00
  12.307  0.480E+00  0.160E+00  0.160E+00  0.160E+00
  12.317  0.482E+00  0.161E+00  0.161E+00  0.161E+00
  12.327  0.483E+00  0.161E+00  0.161E+00  0.161E+00
  12.337  0.485E+00  0.162E+00  0.162E+00  0.162E+00
  12.347  0.486E+00  0.162E+00  0.162E+00  0.162E+00
  12.357  0.486E+00  0.162E+00  0.162E+00  0.162E+00
  12.367  0.487E+00  0.162E+00  0.162E+00  0.162E+00
  12.377  0.487E+00  0.162E+00  0.162E+00  0.162E+00
  12.387  0.486E+00  0.162E+00  0.162E+00  0.162E+00
  12.397  0.486E+00  0.162E+00  0.162E+00  0.162E+00
  12.407  0.480E+00  0.160E+00  0.160E+00  0.160E+00
  12.417  0.464E+00  0.155E+00  0.155E+00  0.155E+00
  12.427  0.436E+00  0.145E+00  0.145E+00  0.145E+00
  12.437  0.397E+00  0.132E+00  0.132E+00  0.132E+00
  12.447  0.347E+00  0.116E+00  0.116E+00  0.116E+00
  12.457  0.312E+00  0.104E+00  0.104E+00  0.104E+00
  12.467  0.308E+00  0.103E+00  0.103E+00  0.103E+00
  12.477  0.305E+00  0.102E+00  0.102E+00  0.102E+00
  12.487  0.301E+00  0.100E+00  0.100E+00  0.100E+00
  12.497  0.297E+00  0.991E-01  0.991E-01  0.991E-01
  12.507  0.294E+00  0.979E-01  0.979E-01  0.979E-01
  12.517  0.290E+00  0.967E-01  0.967E-01  0.967E-01
  12.527  0.286E+00  0.955E-01  0.955E-01  0.955E-01
  12.537  0.283E+00  0.943E-01  0.943E-01  0.943E-01
  12.547  0.279E+00  0.931E-01  0.931E-01  0.931E-01
  12.557  0.276E+00  0.919E-01  0.919E-01  0.919E-01
  12.567  0.272E+00  0.908E-01  0.908E-01  0.908E-01
  12.577  0.269E+00  0.897E-01  0.897E-01  0.897E-01
  12.587  0.266E+00  0.885E-01  0.885E-01  0.885E-01
  12.597  0.262E+00  0.874E-01  0.874E-01  0.874E-01
  12.607  0.259E+00  0.864E-01  0.864E-01  0.864E-01
  12.617  0.256E+00  0.853E-01  0.853E-01  0.853E-01
  12.627  0.253E+00  0.842E-01  0.842E-01  0.842E-01
  12.637  0.250E+00  0.832E-01  0.832E-01  0.832E-01
  12.647  0.247E+00  0.822E-01  0.822E-01  0.822E-01
  12.657  0.245E+00  0.816E-01  0.816E-01  0.816E-01
  12.667  0.243E+00  0.810E-01  0.810E-01  0.810E-01
  12.677  0.241E+00  0.803E-01  0.803E-01  0.803E-01
  12.687  0.239E+00  0.797E-01  0.797E-01  0.797E-01
  12.697  0.237E+00  0.791E-01  0.791E-01  0.791E-01
  12.707  0.235E+00  0.785E-01  0.785E-01  0.785E-01
  12.717  0.234E+00  0.778E-01  0.778E-01  0.778E-01
  12.727  0.232E+00  0.772E-01  0.772E-01  0.772E-01
  12.737  0.230E+00  0.766E-01  0.766E-01  0.766E-01
  12.747  0.228E+00  0.760E-01  0.760E-01  0.760E-01
  12.757  0.226E+00  0.754E-01  0.754E-01  0.754E-01
  12.767  0.224E+00  0.748E-01  0.748E-01  0.748E-01
  12.777  0.222E+00  0.742E-01  0.742E-01  0.742E-01
  12.787  0.221E+00  0.736E-01  0.736E-01  0.736E-01
  12.797  0.219E+00  0.730E-01  0.730E-01  0.730E-01
  12.807  0.217E+00  0.724E-01  0.724E-01  0.724E-01
  12.817  0.215E+00  0.718E-01  0.718E-01  0.718E-01
  12.827  0.213E+00  0.712E-01  0.712E-01  0.712E-01
  12.837  0.212E+00  0.706E-01  0.706E-01  0.706E-01
  12.847  0.210E+00  0.700E-01  0.700E-01  0.700E-01
  12.857  0.208E+00  0.694E-01  0.694E-01  0.694E-01
  12.867  0.206E+00  0.688E-01  0.688E-01  0.688E-01
  12.877  0.205E+00  0.682E-01  0.682E-01  0.682E-01
  12.887  0.203E+00  0.676E-01  0.676E-01  0.676E-01
  12.897  0.201E+00  0.670E-01  0.670E-01  0.670E-01
  12.907  0.199E+00  0.664E-01  0.664E-01  0.664E-01
  12.917  0.198E+00  0.659E-01  0.659E-01  0.659E-01
  12.927  0.196E+00  0.653E-01  0.653E-01  0.653E-01
  12.937  0.194E+00  0.647E-01  0.647E-01  0.647E-01
  12.947  0.192E+00  0.641E-01  0.641E-01  0.641E-01
  12.957  0.191E+00  0.636E-01  0.636E-01  0.636E-01
  12.967  0.189E+00  0.630E-01  0.630E-01  0.630E-01
  12.977  0.187E+00  0.624E-01  0.624E-01  0.624E-01
  12.987  0.186E+00  0.619E-01  0.619E-01  0.619E-01
  12.997  0.184E+00  0.613E-01  0.613E-01  0.613E-01
  13.007  0.182E+00  0.608E-01  0.608E-01  0.608E-01
  13.017  0.181E+00  0.602E-01  0.602E-01  0.602E-01
  13.027  0.179E+00  0.596E-01  0.596E-01  0.596E-01
  13.037  0.177E+00  0.591E-01  0.591E-01  0.591E-01
  13.047  0.176E+00  0.585E-01  0.585E-01  0.585E-01
  13.057  0.174E+00  0.580E-01  0.580E-01  0.580E-01
  13.067  0.172E+00  0.574E-01  0.574E-01  0.574E-01
  13.077  0.171E+00  0.569E-01  0.569E-01  0.569E-01
  13.087  0.169E+00  0.563E-01  0.563E-01  0.563E-01
  13.097  0.167E+00  0.558E-01  0.558E-01  0.558E-01
  13.107  0.166E+00  0.553E-01  0.553E-01  0.553E-01
  13.117  0.164E+00  0.547E-01  0.547E-01  0.547E-01
  13.127  0.163E+00  0.542E-01  0.542E-01  0.542E-01
  13.137  0.161E+00  0.537E-01  0.537E-01  0.537E-01
  13.147  0.159E+00  0.531E-01  0.531E-01  0.531E-01
  13.157  0.158E+00  0.526E-01  0.526E-01  0.526E-01
  13.167  0.156E+00  0.521E-01  0.521E-01  0.521E-01
  13.177  0.155E+00  0.516E-01  0.516E-01  0.516E-01
  13.187  0.153E+00  0.510E-01  0.510E-01  0.510E-01
  13.197  0.152E+00  0.505E-01  0.505E-01  0.505E-01
  13.207  0.150E+00  0.500E-01  0.500E-01  0.500E-01
  13.217  0.148E+00  0.495E-01  0.495E-01  0.495E-01
  13.227  0.147E+00  0.490E-01  0.490E-01  0.490E-01
  13.237  0.146E+00  0.485E-01  0.485E-01  0.485E-01
  13.247  0.144E+00  0.480E-01  0.480E-01  0.480E-01
  13.257  0.143E+00  0.475E-01  0.475E-01  0.475E-01
  13.267  0.141E+00  0.471E-01  0.471E-01  0.471E-01
  13.277  0.140E+00  0.466E-01  0.466E-01  0.466E-01
  13.287  0.138E+00  0.461E-01  0.461E-01  0.461E-01
  13.297  0.137E+00  0.457E-01  0.457E-01  0.457E-01
  13.307  0.136E+00  0.452E-01  0.452E-01  0.452E-01
  13.317  0.134E+00  0.448E-01  0.448E-01  0.448E-01
  13.327  0.133E+00  0.443E-01  0.443E-01  0.443E-01
  13.337  0.132E+00  0.439E-01  0.439E-01  0.439E-01
  13.347  0.130E+00  0.435E-01  0.435E-01  0.435E-01
  13.357  0.129E+00  0.431E-01  0.431E-01  0.431E-01
  13.367  0.128E+00  0.426E-01  0.426E-01  0.426E-01
  13.377  0.127E+00  0.422E-01  0.422E-01  0.422E-01
  13.387  0.125E+00  0.418E-01  0.418E-01  0.418E-01
  13.397  0.124E+00  0.414E-01  0.414E-01  0.414E-01
  13.407  0.123E+00  0.410E-01  0.410E-01  0.410E-01
  13.417  0.122E+00  0.406E-01  0.406E-01  0.406E-01
  13.427  0.121E+00  0.402E-01  0.402E-01  0.402E-01
  13.437  0.120E+00  0.399E-01  0.399E-01  0.399E-01
  13.447  0.118E+00  0.395E-01  0.395E-01  0.395E-01
  13.457  0.117E+00  0.391E-01  0.391E-01  0.391E-01
  13.467  0.116E+00  0.387E-01  0.387E-01  0.387E-01
  13.477  0.115E+00  0.384E-01  0.384E-01  0.384E-01
  13.487  0.114E+00  0.380E-01  0.380E-01  0.380E-01
  13.497  0.113E+00  0.376E-01  0.376E-01  0.376E-01
  13.507  0.112E+00  0.373E-01  0.373E-01  0.373E-01
  13.517  0.111E+00  0.369E-01  0.369E-01  0.369E-01
  13.527  0.110E+00  0.367E-01  0.367E-01  0.367E-01
  13.537  0.110E+00  0.366E-01  0.366E-01  0.366E-01
  13.547  0.109E+00  0.364E-01  0.364E-01  0.364E-01
  13.557  0.109E+00  0.363E-01  0.363E-01  0.363E-01
  13.567  0.108E+00  0.361E-01  0.361E-01  0.361E-01
  13.577  0.108E+00  0.360E-01  0.360E-01  0.360E-01
  13.587  0.107E+00  0.358E-01  0.358E-01  0.358E-01
  13.597  0.107E+00  0.356E-01  0.356E-01  0.356E-01
  13.607  0.106E+00  0.355E-01  0.355E-01  0.355E-01
  13.617  0.106E+00  0.353E-01  0.353E-01  0.353E-01
  13.627  0.105E+00  0.351E-01  0.351E-01  0.351E-01
  13.637  0.105E+00  0.349E-01  0.349E-01  0.349E-01
  13.647  0.104E+00  0.347E-01  0.347E-01  0.347E-01
  13.657  0.104E+00  0.345E-01  0.345E-01  0.345E-01
  13.667  0.103E+00  0.343E-01  0.343E-01  0.343E-01
  13.677  0.102E+00  0.341E-01  0.341E-01  0.341E-01
  13.687  0.102E+00  0.339E-01  0.339E-01  0.339E-01
  13.697  0.101E+00  0.337E-01  0.337E-01  0.337E-01
  13.707  0.100E+00  0.334E-01  0.334E-01  0.334E-01
  13.717  0.995E-01  0.332E-01  0.332E-01  0.332E-01
  13.727  0.987E-01  0.329E-01  0.329E-01  0.329E-01
  13.737  0.978E-01  0.326E-01  0.326E-01  0.326E-01
  13.747  0.969E-01  0.323E-01  0.323E-01  0.323E-01
  13.757  0.960E-01  0.320E-01  0.320E-01  0.320E-01
  13.767  0.950E-01  0.317E-01  0.317E-01  0.317E-01
  13.777  0.940E-01  0.313E-01  0.313E-01  0.313E-01
  13.787  0.929E-01  0.310E-01  0.310E-01  0.310E-01
  13.797  0.918E-01  0.306E-01  0.306E-01  0.306E-01
  13.807  0.906E-01  0.302E-01  0.302E-01  0.302E-01
  13.817  0.893E-01  0.298E-01  0.298E-01  0.298E-01
  13.827  0.880E-01  0.293E-01  0.293E-01  0.293E-01
  13.837  0.866E-01  0.289E-01  0.289E-01  0.289E-01
  13.847  0.852E-01  0.284E-01  0.284E-01  0.284E-01
  13.857  0.837E-01  0.279E-01  0.279E-01  0.279E-01
  13.867  0.821E-01  0.274E-01  0.274E-01  0.274E-01
  13.877  0.804E-01  0.268E-01  0.268E-01  0.268E-01
  13.887  0.787E-01  0.262E-01  0.262E-01  0.262E-01
  13.897  0.769E-01  0.256E-01  0.256E-01  0.256E-01
  13.907  0.750E-01  0.250E-01  0.250E-01  0.250E-01
  13.917  0.730E-01  0.243E-01  0.243E-01  0.243E-01
  13.927  0.710E-01  0.237E-01  0.237E-01  0.237E-01
  13.937  0.689E-01  0.230E-01  0.230E-01  0.230E-01
  13.947  0.666E-01  0.222E-01  0.222E-01  0.222E-01
  13.957  0.649E-01  0.216E-01  0.216E-01  0.216E-01
  13.967  0.645E-01  0.215E-01  0.215E-01  0.215E-01
  13.977  0.640E-01  0.213E-01  0.213E-01  0.213E-01
  13.987  0.636E-01  0.212E-01  0.212E-01  0.212E-01
  13.997  0.631E-01  0.210E-01  0.210E-01  0.210E-01
  14.007  0.627E-01  0.209E-01  0.209E-01  0.209E-01
  14.017  0.623E-01  0.208E-01  0.208E-01  0.208E-01
  14.027  0.618E-01  0.206E-01  0.206E-01  0.206E-01
  14.037  0.614E-01  0.205E-01  0.205E-01  0.205E-01
  14.047  0.610E-01  0.203E-01  0.203E-01  0.203E-01
  14.057  0.606E-01  0.202E-01  0.202E-01  0.202E-01
  14.067  0.602E-01  0.201E-01  0.201E-01  0.201E-01
  14.077  0.598E-01  0.199E-01  0.199E-01  0.199E-01
  14.087  0.593E-01  0.198E-01  0.198E-01  0.198E-01
  14.097  0.589E-01  0.196E-01  0.196E-01  0.196E-01
  14.107  0.585E-01  0.195E-01  0.195E-01  0.195E-01
  14.117  0.581E-01  0.194E-01  0.194E-01  0.194E-01
  14.127  0.578E-01  0.193E-01  0.193E-01  0.193E-01
  14.137  0.574E-01  0.191E-01  0.191E-01  0.191E-01
  14.147  0.570E-01  0.190E-01  0.190E-01  0.190E-01
  14.157  0.566E-01  0.189E-01  0.189E-01  0.189E-01
  14.167  0.562E-01  0.187E-01  0.187E-01  0.187E-01
  14.177  0.558E-01  0.186E-01  0.186E-01  0.186E-01
  14.187  0.555E-01  0.185E-01  0.185E-01  0.185E-01
  14.197  0.551E-01  0.184E-01  0.184E-01  0.184E-01
  14.207  0.547E-01  0.182E-01  0.182E-01  0.182E-01
  14.217  0.544E-01  0.181E-01  0.181E-01  0.181E-01
  14.227  0.540E-01  0.180E-01  0.180E-01  0.180E-01
  14.237  0.536E-01  0.179E-01  0.179E-01  0.179E-01
  14.247  0.533E-01  0.178E-01  0.178E-01  0.178E-01
  14.257  0.529E-01  0.176E-01  0.176E-01  0.176E-01
  14.267  0.526E-01  0.175E-01  0.175E-01  0.175E-01
  14.277  0.522E-01  0.174E-01  0.174E-01  0.174E-01
  14.287  0.519E-01  0.173E-01  0.173E-01  0.173E-01
  14.297  0.516E-01  0.172E-01  0.172E-01  0.172E-01
  14.307  0.512E-01  0.171E-01  0.171E-01  0.171E-01
  14.317  0.509E-01  0.170E-01  0.170E-01  0.170E-01
  14.327  0.506E-01  0.169E-01  0.169E-01  0.169E-01
  14.337  0.502E-01  0.167E-01  0.167E-01  0.167E-01
  14.347  0.499E-01  0.166E-01  0.166E-01  0.166E-01
  14.357  0.496E-01  0.165E-01  0.165E-01  0.165E-01
  14.367  0.493E-01  0.164E-01  0.164E-01  0.164E-01
  14.377  0.490E-01  0.163E-01  0.163E-01  0.163E-01
  14.387  0.487E-01  0.162E-01  0.162E-01  0.162E-01
  14.397  0.484E-01  0.161E-01  0.161E-01  0.161E-01
  14.407  0.481E-01  0.160E-01  0.160E-01  0.160E-01
  14.417  0.478E-01  0.159E-01  0.159E-01  0.159E-01
  14.427  0.475E-01  0.158E-01  0.158E-01  0.158E-01
  14.437  0.472E-01  0.157E-01  0.157E-01  0.157E-01
  14.447  0.469E-01  0.156E-01  0.156E-01  0.156E-01
  14.457  0.466E-01  0.155E-01  0.155E-01  0.155E-01
  14.467  0.463E-01  0.154E-01  0.154E-01  0.154E-01
  14.477  0.465E-01  0.155E-01  0.155E-01  0.155E-01
  14.487  0.467E-01  0.156E-01  0.156E-01  0.156E-01
  14.497  0.468E-01  0.156E-01  0.156E-01  0.156E-01
  14.507  0.470E-01  0.157E-01  0.157E-01  0.157E-01
  14.517  0.472E-01  0.157E-01  0.157E-01  0.157E-01
  14.527  0.474E-01  0.158E-01  0.158E-01  0.158E-01
  14.537  0.476E-01  0.159E-01  0.159E-01  0.159E-01
  14.547  0.478E-01  0.159E-01  0.159E-01  0.159E-01
  14.557  0.481E-01  0.160E-01  0.160E-01  0.160E-01
  14.567  0.483E-01  0.161E-01  0.161E-01  0.161E-01
  14.577  0.485E-01  0.162E-01  0.162E-01  0.162E-01
  14.587  0.488E-01  0.163E-01  0.163E-01  0.163E-01
  14.597  0.490E-01  0.163E-01  0.163E-01  0.163E-01
  14.607  0.492E-01  0.164E-01  0.164E-01  0.164E-01
  14.617  0.495E-01  0.165E-01  0.165E-01  0.165E-01
  14.627  0.498E-01  0.166E-01  0.166E-01  0.166E-01
  14.637  0.531E-01  0.177E-01  0.177E-01  0.177E-01
  14.647  0.574E-01  0.191E-01  0.191E-01  0.191E-01
  14.657  0.612E-01  0.204E-01  0.204E-01  0.204E-01
  14.667  0.646E-01  0.215E-01  0.215E-01  0.215E-01
  14.677  0.675E-01  0.225E-01  0.225E-01  0.225E-01
  14.687  0.699E-01  0.233E-01  0.233E-01  0.233E-01
  14.697  0.720E-01  0.240E-01  0.240E-01  0.240E-01
  14.707  0.735E-01  0.245E-01  0.245E-01  0.245E-01
  14.717  0.747E-01  0.249E-01  0.249E-01  0.249E-01
  14.727  0.754E-01  0.251E-01  0.251E-01  0.251E-01
  14.737  0.757E-01  0.252E-01  0.252E-01  0.252E-01
  14.747  0.757E-01  0.252E-01  0.252E-01  0.252E-01
  14.757  0.752E-01  0.251E-01  0.251E-01  0.251E-01
  14.767  0.743E-01  0.248E-01  0.248E-01  0.248E-01
  14.777  0.730E-01  0.243E-01  0.243E-01  0.243E-01
  14.787  0.713E-01  0.238E-01  0.238E-01  0.238E-01
  14.797  0.692E-01  0.231E-01  0.231E-01  0.231E-01
  14.807  0.668E-01  0.223E-01  0.223E-01  0.223E-01
  14.817  0.640E-01  0.213E-01  0.213E-01  0.213E-01
  14.827  0.608E-01  0.203E-01  0.203E-01  0.203E-01
  14.837  0.572E-01  0.191E-01  0.191E-01  0.191E-01
  14.847  0.534E-01  0.178E-01  0.178E-01  0.178E-01
  14.857  0.491E-01  0.164E-01  0.164E-01  0.164E-01
  14.867  0.574E-01  0.191E-01  0.191E-01  0.191E-01
  14.877  0.651E-01  0.217E-01  0.217E-01  0.217E-01
  14.887  0.713E-01  0.238E-01  0.238E-01  0.238E-01
  14.897  0.760E-01  0.253E-01  0.253E-01  0.253E-01
  14.907  0.791E-01  0.264E-01  0.264E-01  0.264E-01
  14.917  0.807E-01  0.269E-01  0.269E-01  0.269E-01
  14.927  0.807E-01  0.269E-01  0.269E-01  0.269E-01
  14.937  0.792E-01  0.264E-01  0.264E-01  0.264E-01
  14.947  0.761E-01  0.254E-01  0.254E-01  0.254E-01
  14.957  0.715E-01  0.238E-01  0.238E-01  0.238E-01
  14.967  0.653E-01  0.218E-01  0.218E-01  0.218E-01
  14.977  0.575E-01  0.192E-01  0.192E-01  0.192E-01
  14.987  0.481E-01  0.160E-01  0.160E-01  0.160E-01
  14.997  0.371E-01  0.124E-01  0.124E-01  0.124E-01
  15.007  0.245E-01  0.818E-02  0.818E-02  0.818E-02
  15.017  0.104E-01  0.345E-02  0.345E-02  0.345E-02
  15.027  0.000E+00  0.000E+00  0.000E+00  0.000E+00
